#FORMAT	     : EMSA/MAS Spectral Data File
#VERSION     : 1.0
#TITLE       : LL_cal
#DATE        : 
#TIME        : 
#OWNER       : 
#NPOINTS     : 1024
#NCOLUMNS    : 1
#XUNITS      : eV
#YUNITS      : 
#DATATYPE    : XY
#XPERCHAN    : 5.000000e-001
#OFFSET      : -5.800000e+001
#SPECTRUM    : Spectral Data Starts Here
-5.800000e+001, -1.132000e+003
-5.750000e+001, -6.360000e+002
-5.700000e+001, 1.653000e+003
-5.650000e+001, 3.140000e+002
-5.600000e+001, -1.670000e+002
-5.550000e+001, -1.579000e+003
-5.500000e+001, -1.326000e+003
-5.450000e+001, -9.060000e+002
-5.400000e+001, -9.470000e+002
-5.350000e+001, -6.830000e+002
-5.300000e+001, 8.120000e+002
-5.250000e+001, 5.110000e+002
-5.200000e+001, -3.300000e+001
-5.150000e+001, -7.210000e+002
-5.100000e+001, 1.850000e+002
-5.050000e+001, 6.390000e+002
-5.000000e+001, -8.280000e+002
-4.950000e+001, -6.970000e+002
-4.900000e+001, 6.850000e+002
-4.850000e+001, 2.514000e+003
-4.800000e+001, -9.600000e+001
-4.750000e+001, -7.780000e+002
-4.700000e+001, 1.370000e+003
-4.650000e+001, -3.450000e+002
-4.600000e+001, 8.660000e+002
-4.550000e+001, -9.670000e+002
-4.500000e+001, -8.350000e+002
-4.450000e+001, 2.990000e+002
-4.400000e+001, -1.088000e+003
-4.350000e+001, 8.240000e+002
-4.300000e+001, -1.553000e+003
-4.250000e+001, -1.500000e+001
-4.200000e+001, 9.620000e+002
-4.150000e+001, -6.300000e+001
-4.100000e+001, 8.240000e+002
-4.050000e+001, 8.050000e+002
-4.000000e+001, 1.077000e+003
-3.950000e+001, 2.520000e+002
-3.900000e+001, 8.120000e+002
-3.850000e+001, -6.090000e+002
-3.800000e+001, -3.330000e+002
-3.750000e+001, -1.315000e+003
-3.700000e+001, 5.970000e+002
-3.650000e+001, 7.500000e+001
-3.600000e+001, 1.429000e+003
-3.550000e+001, -4.230000e+002
-3.500000e+001, -1.780000e+003
-3.450000e+001, 2.086000e+003
-3.400000e+001, -4.950000e+002
-3.350000e+001, 1.507000e+003
-3.300000e+001, 1.087000e+003
-3.250000e+001, 5.870000e+002
-3.200000e+001, 8.020000e+002
-3.150000e+001, 3.570000e+002
-3.100000e+001, 7.930000e+002
-3.050000e+001, 1.054000e+003
-3.000000e+001, 3.420000e+002
-2.950000e+001, 9.280000e+002
-2.900000e+001, -2.410000e+002
-2.850000e+001, -4.560000e+002
-2.800000e+001, -1.843000e+003
-2.750000e+001, -1.920000e+002
-2.700000e+001, -2.840000e+002
-2.650000e+001, -5.560000e+002
-2.600000e+001, 1.653000e+003
-2.550000e+001, 1.783000e+003
-2.500000e+001, 1.255000e+003
-2.450000e+001, 4.630000e+002
-2.400000e+001, 2.100000e+001
-2.350000e+001, 5.970000e+002
-2.300000e+001, 1.113000e+003
-2.250000e+001, 3.860000e+002
-2.200000e+001, -9.420000e+002
-2.150000e+001, 2.560000e+002
-2.100000e+001, 1.162000e+003
-2.050000e+001, 1.223000e+003
-2.000000e+001, 5.740000e+002
-1.950000e+001, -1.030000e+002
-1.900000e+001, -6.600000e+001
-1.850000e+001, 9.270000e+002
-1.800000e+001, -5.090000e+002
-1.750000e+001, 1.650000e+002
-1.700000e+001, 4.250000e+002
-1.650000e+001, -5.230000e+002
-1.600000e+001, 1.118000e+003
-1.550000e+001, 9.120000e+002
-1.500000e+001, 1.476000e+003
-1.450000e+001, 1.636000e+003
-1.400000e+001, 1.586000e+003
-1.350000e+001, 2.110000e+003
-1.300000e+001, 4.791000e+003
-1.250000e+001, 1.816000e+003
-1.200000e+001, 2.820000e+003
-1.150000e+001, 3.402000e+003
-1.100000e+001, 2.386000e+003
-1.050000e+001, 3.423000e+003
-1.000000e+001, 4.509000e+003
-9.500000e+000, 4.332000e+003
-9.000000e+000, 7.635000e+003
-8.500000e+000, 9.489000e+003
-8.000000e+000, 1.048000e+004
-7.500000e+000, 1.261100e+004
-7.000000e+000, 1.477500e+004
-6.500000e+000, 1.687200e+004
-6.000000e+000, 2.243800e+004
-5.500000e+000, 2.825000e+004
-5.000000e+000, 4.175300e+004
-4.500000e+000, 7.303100e+004
-4.000000e+000, 1.517530e+005
-3.500000e+000, 3.279090e+005
-3.000000e+000, 6.781640e+005
-2.500000e+000, 1.302625e+006
-2.000000e+000, 2.404697e+006
-1.500000e+000, 4.536247e+006
-1.000000e+000, 8.812914e+006
-5.000000e-001, 1.433134e+007
0.000000e+000, 1.657052e+007
5.000000e-001, 1.326469e+007
1.000000e+000, 8.003759e+006
1.500000e+000, 4.344046e+006
2.000000e+000, 2.458510e+006
2.500000e+000, 1.441004e+006
3.000000e+000, 8.502660e+005
3.500000e+000, 5.322490e+005
4.000000e+000, 3.740990e+005
4.500000e+000, 2.950210e+005
5.000000e+000, 2.503240e+005
5.500000e+000, 2.164910e+005
6.000000e+000, 1.962890e+005
6.500000e+000, 1.813600e+005
7.000000e+000, 1.779330e+005
7.500000e+000, 1.787580e+005
8.000000e+000, 1.821390e+005
8.500000e+000, 1.910800e+005
9.000000e+000, 2.026070e+005
9.500000e+000, 2.124130e+005
1.000000e+001, 2.246630e+005
1.050000e+001, 2.385280e+005
1.100000e+001, 2.554670e+005
1.150000e+001, 2.687690e+005
1.200000e+001, 2.848580e+005
1.250000e+001, 2.990540e+005
1.300000e+001, 3.124680e+005
1.350000e+001, 3.284620e+005
1.400000e+001, 3.414330e+005
1.450000e+001, 3.548920e+005
1.500000e+001, 3.689470e+005
1.550000e+001, 3.879360e+005
1.600000e+001, 4.031960e+005
1.650000e+001, 4.149960e+005
1.700000e+001, 4.334180e+005
1.750000e+001, 4.523460e+005
1.800000e+001, 4.729570e+005
1.850000e+001, 4.966720e+005
1.900000e+001, 5.190250e+005
1.950000e+001, 5.458730e+005
2.000000e+001, 5.675030e+005
2.050000e+001, 5.889390e+005
2.100000e+001, 6.099850e+005
2.150000e+001, 6.267040e+005
2.200000e+001, 6.316340e+005
2.250000e+001, 6.342520e+005
2.300000e+001, 6.268030e+005
2.350000e+001, 6.131000e+005
2.400000e+001, 5.890970e+005
2.450000e+001, 5.658950e+005
2.500000e+001, 5.357990e+005
2.550000e+001, 5.103750e+005
2.600000e+001, 4.832520e+005
2.650000e+001, 4.608950e+005
2.700000e+001, 4.413810e+005
2.750000e+001, 4.226100e+005
2.800000e+001, 4.124900e+005
2.850000e+001, 4.023430e+005
2.900000e+001, 3.928780e+005
2.950000e+001, 3.895470e+005
3.000000e+001, 3.872480e+005
3.050000e+001, 3.893500e+005
3.100000e+001, 3.936600e+005
3.150000e+001, 3.984020e+005
3.200000e+001, 4.029490e+005
3.250000e+001, 4.033790e+005
3.300000e+001, 4.049560e+005
3.350000e+001, 4.097630e+005
3.400000e+001, 4.071490e+005
3.450000e+001, 4.002410e+005
3.500000e+001, 3.980340e+005
3.550000e+001, 3.935930e+005
3.600000e+001, 3.865540e+005
3.650000e+001, 3.773420e+005
3.700000e+001, 3.681920e+005
3.750000e+001, 3.571050e+005
3.800000e+001, 3.485150e+005
3.850000e+001, 3.374480e+005
3.900000e+001, 3.295300e+005
3.950000e+001, 3.198230e+005
4.000000e+001, 3.132400e+005
4.050000e+001, 3.067790e+005
4.100000e+001, 2.996060e+005
4.150000e+001, 2.916480e+005
4.200000e+001, 2.862030e+005
4.250000e+001, 2.801980e+005
4.300000e+001, 2.752100e+005
4.350000e+001, 2.698570e+005
4.400000e+001, 2.683730e+005
4.450000e+001, 2.622610e+005
4.500000e+001, 2.557310e+005
4.550000e+001, 2.536990e+005
4.600000e+001, 2.507520e+005
4.650000e+001, 2.448820e+005
4.700000e+001, 2.417110e+005
4.750000e+001, 2.386910e+005
4.800000e+001, 2.336860e+005
4.850000e+001, 2.264850e+005
4.900000e+001, 2.237660e+005
4.950000e+001, 2.206890e+005
5.000000e+001, 2.169270e+005
5.050000e+001, 2.158460e+005
5.100000e+001, 2.113310e+005
5.150000e+001, 2.092950e+005
5.200000e+001, 2.071610e+005
5.250000e+001, 2.071680e+005
5.300000e+001, 2.044820e+005
5.350000e+001, 2.029740e+005
5.400000e+001, 2.015130e+005
5.450000e+001, 1.991380e+005
5.500000e+001, 1.987560e+005
5.550000e+001, 2.025230e+005
5.600000e+001, 2.008380e+005
5.650000e+001, 1.996150e+005
5.700000e+001, 1.997360e+005
5.750000e+001, 1.969290e+005
5.800000e+001, 1.922820e+005
5.850000e+001, 1.897350e+005
5.900000e+001, 1.854580e+005
5.950000e+001, 1.832310e+005
6.000000e+001, 1.797360e+005
6.050000e+001, 1.742170e+005
6.100000e+001, 1.726050e+005
6.150000e+001, 1.721660e+005
6.200000e+001, 1.678200e+005
6.250000e+001, 1.653410e+005
6.300000e+001, 1.638740e+005
6.350000e+001, 1.622770e+005
6.400000e+001, 1.571180e+005
6.450000e+001, 1.553090e+005
6.500000e+001, 1.535340e+005
6.550000e+001, 1.520280e+005
6.600000e+001, 1.477200e+005
6.650000e+001, 1.480030e+005
6.700000e+001, 1.457810e+005
6.750000e+001, 1.422770e+005
6.800000e+001, 1.418540e+005
6.850000e+001, 1.395040e+005
6.900000e+001, 1.363850e+005
6.950000e+001, 1.352130e+005
7.000000e+001, 1.349200e+005
7.050000e+001, 1.335960e+005
7.100000e+001, 1.312930e+005
7.150000e+001, 1.281250e+005
7.200000e+001, 1.272430e+005
7.250000e+001, 1.250860e+005
7.300000e+001, 1.253420e+005
7.350000e+001, 1.237960e+005
7.400000e+001, 1.198250e+005
7.450000e+001, 1.199620e+005
7.500000e+001, 1.170820e+005
7.550000e+001, 1.170890e+005
7.600000e+001, 1.156100e+005
7.650000e+001, 1.126500e+005
7.700000e+001, 1.100470e+005
7.750000e+001, 1.114430e+005
7.800000e+001, 1.082790e+005
7.850000e+001, 1.073980e+005
7.900000e+001, 1.074030e+005
7.950000e+001, 1.065890e+005
8.000000e+001, 1.030150e+005
8.050000e+001, 1.019520e+005
8.100000e+001, 1.015380e+005
8.150000e+001, 1.014900e+005
8.200000e+001, 1.007690e+005
8.250000e+001, 9.686400e+004
8.300000e+001, 9.501800e+004
8.350000e+001, 9.521600e+004
8.400000e+001, 9.347100e+004
8.450000e+001, 9.159900e+004
8.500000e+001, 8.934900e+004
8.550000e+001, 9.118200e+004
8.600000e+001, 8.894600e+004
8.650000e+001, 8.827800e+004
8.700000e+001, 8.743800e+004
8.750000e+001, 8.531200e+004
8.800000e+001, 8.433600e+004
8.850000e+001, 8.372600e+004
8.900000e+001, 8.101100e+004
8.950000e+001, 7.974800e+004
9.000000e+001, 8.127600e+004
9.050000e+001, 8.083600e+004
9.100000e+001, 7.891000e+004
9.150000e+001, 7.812500e+004
9.200000e+001, 7.647700e+004
9.250000e+001, 7.401600e+004
9.300000e+001, 7.435100e+004
9.350000e+001, 7.366200e+004
9.400000e+001, 7.280800e+004
9.450000e+001, 7.379900e+004
9.500000e+001, 7.240200e+004
9.550000e+001, 7.042300e+004
9.600000e+001, 6.885100e+004
9.650000e+001, 6.833600e+004
9.700000e+001, 6.853100e+004
9.750000e+001, 6.643000e+004
9.800000e+001, 6.628100e+004
9.850000e+001, 6.431200e+004
9.900000e+001, 6.315800e+004
9.950000e+001, 6.310400e+004
1.000000e+002, 6.315900e+004
1.005000e+002, 6.179600e+004
1.010000e+002, 6.098900e+004
1.015000e+002, 6.087200e+004
1.020000e+002, 5.918700e+004
1.025000e+002, 5.873400e+004
1.030000e+002, 5.937900e+004
1.035000e+002, 5.882200e+004
1.040000e+002, 5.712300e+004
1.045000e+002, 5.870600e+004
1.050000e+002, 5.809500e+004
1.055000e+002, 6.042400e+004
1.060000e+002, 5.911200e+004
1.065000e+002, 5.788000e+004
1.070000e+002, 5.820300e+004
1.075000e+002, 5.563500e+004
1.080000e+002, 5.617400e+004
1.085000e+002, 5.434700e+004
1.090000e+002, 5.493300e+004
1.095000e+002, 5.238900e+004
1.100000e+002, 5.393600e+004
1.105000e+002, 5.137800e+004
1.110000e+002, 5.057300e+004
1.115000e+002, 5.121500e+004
1.120000e+002, 4.911400e+004
1.125000e+002, 5.113400e+004
1.130000e+002, 4.917600e+004
1.135000e+002, 5.138900e+004
1.140000e+002, 5.068200e+004
1.145000e+002, 5.012500e+004
1.150000e+002, 4.802300e+004
1.155000e+002, 4.778600e+004
1.160000e+002, 4.501700e+004
1.165000e+002, 4.883800e+004
1.170000e+002, 4.663700e+004
1.175000e+002, 4.555000e+004
1.180000e+002, 4.333100e+004
1.185000e+002, 4.541300e+004
1.190000e+002, 4.503600e+004
1.195000e+002, 4.276500e+004
1.200000e+002, 4.354900e+004
1.205000e+002, 4.275700e+004
1.210000e+002, 4.267000e+004
1.215000e+002, 4.293700e+004
1.220000e+002, 4.216600e+004
1.225000e+002, 4.088200e+004
1.230000e+002, 4.168500e+004
1.235000e+002, 4.155900e+004
1.240000e+002, 4.202900e+004
1.245000e+002, 4.191800e+004
1.250000e+002, 4.245000e+004
1.255000e+002, 3.931800e+004
1.260000e+002, 4.144800e+004
1.265000e+002, 3.893800e+004
1.270000e+002, 3.933900e+004
1.275000e+002, 4.120200e+004
1.280000e+002, 3.970200e+004
1.285000e+002, 3.949500e+004
1.290000e+002, 3.834100e+004
1.295000e+002, 3.704300e+004
1.300000e+002, 3.834200e+004
1.305000e+002, 3.876500e+004
1.310000e+002, 3.904100e+004
1.315000e+002, 3.921200e+004
1.320000e+002, 3.646200e+004
1.325000e+002, 3.769600e+004
1.330000e+002, 3.720800e+004
1.335000e+002, 3.557400e+004
1.340000e+002, 3.409800e+004
1.345000e+002, 3.471900e+004
1.350000e+002, 3.363000e+004
1.355000e+002, 3.514100e+004
1.360000e+002, 3.352000e+004
1.365000e+002, 3.238300e+004
1.370000e+002, 3.526600e+004
1.375000e+002, 3.382900e+004
1.380000e+002, 3.166500e+004
1.385000e+002, 3.364300e+004
1.390000e+002, 3.374500e+004
1.395000e+002, 3.110600e+004
1.400000e+002, 3.091600e+004
1.405000e+002, 3.063600e+004
1.410000e+002, 3.243900e+004
1.415000e+002, 3.213200e+004
1.420000e+002, 3.068800e+004
1.425000e+002, 2.967100e+004
1.430000e+002, 3.110200e+004
1.435000e+002, 3.064600e+004
1.440000e+002, 3.230700e+004
1.445000e+002, 2.983200e+004
1.450000e+002, 2.802900e+004
1.455000e+002, 2.699800e+004
1.460000e+002, 2.781300e+004
1.465000e+002, 2.706100e+004
1.470000e+002, 2.765700e+004
1.475000e+002, 2.783200e+004
1.480000e+002, 2.723500e+004
1.485000e+002, 2.732100e+004
1.490000e+002, 2.706300e+004
1.495000e+002, 2.565400e+004
1.500000e+002, 2.592200e+004
1.505000e+002, 2.435500e+004
1.510000e+002, 2.502600e+004
1.515000e+002, 2.745400e+004
1.520000e+002, 2.710000e+004
1.525000e+002, 2.731400e+004
1.530000e+002, 2.767400e+004
1.535000e+002, 2.500300e+004
1.540000e+002, 2.542800e+004
1.545000e+002, 2.647400e+004
1.550000e+002, 2.465900e+004
1.555000e+002, 2.759000e+004
1.560000e+002, 2.538400e+004
1.565000e+002, 2.435200e+004
1.570000e+002, 2.662800e+004
1.575000e+002, 2.619200e+004
1.580000e+002, 2.551500e+004
1.585000e+002, 2.407700e+004
1.590000e+002, 2.333200e+004
1.595000e+002, 2.607100e+004
1.600000e+002, 2.321400e+004
1.605000e+002, 2.308100e+004
1.610000e+002, 2.334000e+004
1.615000e+002, 2.257800e+004
1.620000e+002, 2.214900e+004
1.625000e+002, 2.205900e+004
1.630000e+002, 2.229200e+004
1.635000e+002, 2.210300e+004
1.640000e+002, 2.247400e+004
1.645000e+002, 2.126200e+004
1.650000e+002, 2.065700e+004
1.655000e+002, 2.035600e+004
1.660000e+002, 2.169400e+004
1.665000e+002, 2.342800e+004
1.670000e+002, 2.006800e+004
1.675000e+002, 2.082900e+004
1.680000e+002, 1.976600e+004
1.685000e+002, 2.095400e+004
1.690000e+002, 2.094000e+004
1.695000e+002, 2.202200e+004
1.700000e+002, 1.951900e+004
1.705000e+002, 2.098200e+004
1.710000e+002, 2.054300e+004
1.715000e+002, 1.904100e+004
1.720000e+002, 1.900200e+004
1.725000e+002, 2.125400e+004
1.730000e+002, 1.980100e+004
1.735000e+002, 1.896800e+004
1.740000e+002, 1.987900e+004
1.745000e+002, 1.817500e+004
1.750000e+002, 1.904300e+004
1.755000e+002, 2.060800e+004
1.760000e+002, 1.983400e+004
1.765000e+002, 1.905700e+004
1.770000e+002, 1.862900e+004
1.775000e+002, 1.947700e+004
1.780000e+002, 1.792900e+004
1.785000e+002, 1.851700e+004
1.790000e+002, 1.779400e+004
1.795000e+002, 1.928500e+004
1.800000e+002, 1.721500e+004
1.805000e+002, 1.904300e+004
1.810000e+002, 1.747300e+004
1.815000e+002, 1.624100e+004
1.820000e+002, 1.525100e+004
1.825000e+002, 1.734500e+004
1.830000e+002, 1.605800e+004
1.835000e+002, 1.675100e+004
1.840000e+002, 1.540100e+004
1.845000e+002, 1.612100e+004
1.850000e+002, 1.488900e+004
1.855000e+002, 1.494800e+004
1.860000e+002, 1.659900e+004
1.865000e+002, 1.608600e+004
1.870000e+002, 1.677100e+004
1.875000e+002, 1.628500e+004
1.880000e+002, 1.663700e+004
1.885000e+002, 1.683400e+004
1.890000e+002, 1.549100e+004
1.895000e+002, 1.601800e+004
1.900000e+002, 1.543900e+004
1.905000e+002, 1.477000e+004
1.910000e+002, 1.521300e+004
1.915000e+002, 1.462000e+004
1.920000e+002, 1.554000e+004
1.925000e+002, 1.345800e+004
1.930000e+002, 1.620400e+004
1.935000e+002, 1.417400e+004
1.940000e+002, 1.495500e+004
1.945000e+002, 1.503900e+004
1.950000e+002, 1.560100e+004
1.955000e+002, 1.443200e+004
1.960000e+002, 1.444000e+004
1.965000e+002, 1.461600e+004
1.970000e+002, 1.476200e+004
1.975000e+002, 1.572500e+004
1.980000e+002, 1.388900e+004
1.985000e+002, 1.563600e+004
1.990000e+002, 1.300100e+004
1.995000e+002, 1.316600e+004
2.000000e+002, 1.512800e+004
2.005000e+002, 1.305900e+004
2.010000e+002, 1.341900e+004
2.015000e+002, 1.278600e+004
2.020000e+002, 1.248400e+004
2.025000e+002, 1.418000e+004
2.030000e+002, 1.243900e+004
2.035000e+002, 1.336200e+004
2.040000e+002, 1.290900e+004
2.045000e+002, 1.191600e+004
2.050000e+002, 1.203500e+004
2.055000e+002, 1.197000e+004
2.060000e+002, 1.195100e+004
2.065000e+002, 1.204400e+004
2.070000e+002, 1.088500e+004
2.075000e+002, 1.292700e+004
2.080000e+002, 1.161000e+004
2.085000e+002, 1.247000e+004
2.090000e+002, 1.404000e+004
2.095000e+002, 1.184500e+004
2.100000e+002, 1.227500e+004
2.105000e+002, 1.279500e+004
2.110000e+002, 1.206500e+004
2.115000e+002, 1.094800e+004
2.120000e+002, 1.136000e+004
2.125000e+002, 1.295200e+004
2.130000e+002, 1.164400e+004
2.135000e+002, 1.131000e+004
2.140000e+002, 9.770000e+003
2.145000e+002, 1.129800e+004
2.150000e+002, 1.308800e+004
2.155000e+002, 1.383500e+004
2.160000e+002, 1.255800e+004
2.165000e+002, 1.054900e+004
2.170000e+002, 1.122900e+004
2.175000e+002, 1.049800e+004
2.180000e+002, 1.111200e+004
2.185000e+002, 1.058700e+004
2.190000e+002, 1.040600e+004
2.195000e+002, 1.135800e+004
2.200000e+002, 9.309000e+003
2.205000e+002, 9.145000e+003
2.210000e+002, 1.062500e+004
2.215000e+002, 1.047300e+004
2.220000e+002, 1.263700e+004
2.225000e+002, 9.841000e+003
2.230000e+002, 9.331000e+003
2.235000e+002, 1.009100e+004
2.240000e+002, 1.086100e+004
2.245000e+002, 9.869000e+003
2.250000e+002, 9.273000e+003
2.255000e+002, 9.086000e+003
2.260000e+002, 1.114100e+004
2.265000e+002, 1.010500e+004
2.270000e+002, 9.125000e+003
2.275000e+002, 1.002100e+004
2.280000e+002, 8.523000e+003
2.285000e+002, 9.437000e+003
2.290000e+002, 1.076700e+004
2.295000e+002, 9.116000e+003
2.300000e+002, 8.590000e+003
2.305000e+002, 9.125000e+003
2.310000e+002, 8.439000e+003
2.315000e+002, 1.075100e+004
2.320000e+002, 9.159000e+003
2.325000e+002, 9.302000e+003
2.330000e+002, 1.041900e+004
2.335000e+002, 1.053400e+004
2.340000e+002, 8.954000e+003
2.345000e+002, 7.407000e+003
2.350000e+002, 9.042000e+003
2.355000e+002, 9.542000e+003
2.360000e+002, 8.425000e+003
2.365000e+002, 9.366000e+003
2.370000e+002, 8.484000e+003
2.375000e+002, 8.131000e+003
2.380000e+002, 8.556000e+003
2.385000e+002, 7.989000e+003
2.390000e+002, 8.791000e+003
2.395000e+002, 7.817000e+003
2.400000e+002, 8.241000e+003
2.405000e+002, 7.634000e+003
2.410000e+002, 8.989000e+003
2.415000e+002, 7.944000e+003
2.420000e+002, 8.320000e+003
2.425000e+002, 8.091000e+003
2.430000e+002, 7.367000e+003
2.435000e+002, 8.309000e+003
2.440000e+002, 8.277000e+003
2.445000e+002, 8.389000e+003
2.450000e+002, 6.286000e+003
2.455000e+002, 6.902000e+003
2.460000e+002, 8.533000e+003
2.465000e+002, 7.434000e+003
2.470000e+002, 7.840000e+003
2.475000e+002, 8.445000e+003
2.480000e+002, 7.296000e+003
2.485000e+002, 7.283000e+003
2.490000e+002, 8.011000e+003
2.495000e+002, 7.312000e+003
2.500000e+002, 7.432000e+003
2.505000e+002, 7.757000e+003
2.510000e+002, 7.208000e+003
2.515000e+002, 6.749000e+003
2.520000e+002, 7.053000e+003
2.525000e+002, 6.649000e+003
2.530000e+002, 6.072000e+003
2.535000e+002, 5.836000e+003
2.540000e+002, 5.568000e+003
2.545000e+002, 6.636000e+003
2.550000e+002, 7.135000e+003
2.555000e+002, 6.132000e+003
2.560000e+002, 8.104000e+003
2.565000e+002, 7.192000e+003
2.570000e+002, 7.241000e+003
2.575000e+002, 7.144000e+003
2.580000e+002, 6.158000e+003
2.585000e+002, 7.093000e+003
2.590000e+002, 7.337000e+003
2.595000e+002, 8.582000e+003
2.600000e+002, 6.510000e+003
2.605000e+002, 6.359000e+003
2.610000e+002, 6.187000e+003
2.615000e+002, 5.717000e+003
2.620000e+002, 6.473000e+003
2.625000e+002, 5.364000e+003
2.630000e+002, 7.741000e+003
2.635000e+002, 5.841000e+003
2.640000e+002, 6.839000e+003
2.645000e+002, 7.443000e+003
2.650000e+002, 8.462000e+003
2.655000e+002, 7.152000e+003
2.660000e+002, 6.461000e+003
2.665000e+002, 4.627000e+003
2.670000e+002, 7.992000e+003
2.675000e+002, 5.869000e+003
2.680000e+002, 6.559000e+003
2.685000e+002, 5.930000e+003
2.690000e+002, 6.163000e+003
2.695000e+002, 5.675000e+003
2.700000e+002, 5.562000e+003
2.705000e+002, 6.381000e+003
2.710000e+002, 6.919000e+003
2.715000e+002, 7.368000e+003
2.720000e+002, 5.253000e+003
2.725000e+002, 4.157000e+003
2.730000e+002, 4.954000e+003
2.735000e+002, 6.259000e+003
2.740000e+002, 7.030000e+003
2.745000e+002, 6.416000e+003
2.750000e+002, 6.870000e+003
2.755000e+002, 5.728000e+003
2.760000e+002, 5.723000e+003
2.765000e+002, 5.445000e+003
2.770000e+002, 6.411000e+003
2.775000e+002, 5.251000e+003
2.780000e+002, 5.961000e+003
2.785000e+002, 4.997000e+003
2.790000e+002, 5.138000e+003
2.795000e+002, 5.095000e+003
2.800000e+002, 5.932000e+003
2.805000e+002, 7.001000e+003
2.810000e+002, 5.256000e+003
2.815000e+002, 4.478000e+003
2.820000e+002, 6.660000e+003
2.825000e+002, 5.089000e+003
2.830000e+002, 4.694000e+003
2.835000e+002, 4.723000e+003
2.840000e+002, 4.161000e+003
2.845000e+002, 7.100000e+003
2.850000e+002, 4.136000e+003
2.855000e+002, 6.265000e+003
2.860000e+002, 4.674000e+003
2.865000e+002, 4.665000e+003
2.870000e+002, 4.560000e+003
2.875000e+002, 4.063000e+003
2.880000e+002, 6.088000e+003
2.885000e+002, 4.249000e+003
2.890000e+002, 7.294000e+003
2.895000e+002, 4.111000e+003
2.900000e+002, 4.584000e+003
2.905000e+002, 3.883000e+003
2.910000e+002, 4.908000e+003
2.915000e+002, 4.488000e+003
2.920000e+002, 4.289000e+003
2.925000e+002, 4.538000e+003
2.930000e+002, 5.137000e+003
2.935000e+002, 3.979000e+003
2.940000e+002, 5.876000e+003
2.945000e+002, 4.881000e+003
2.950000e+002, 5.358000e+003
2.955000e+002, 4.862000e+003
2.960000e+002, 5.073000e+003
2.965000e+002, 4.141000e+003
2.970000e+002, 5.248000e+003
2.975000e+002, 3.691000e+003
2.980000e+002, 4.499000e+003
2.985000e+002, 3.955000e+003
2.990000e+002, 4.172000e+003
2.995000e+002, 3.306000e+003
3.000000e+002, 4.872000e+003
3.005000e+002, 3.681000e+003
3.010000e+002, 4.313000e+003
3.015000e+002, 5.672000e+003
3.020000e+002, 5.548000e+003
3.025000e+002, 4.540000e+003
3.030000e+002, 3.314000e+003
3.035000e+002, 2.809000e+003
3.040000e+002, 5.225000e+003
3.045000e+002, 4.046000e+003
3.050000e+002, 5.621000e+003
3.055000e+002, 4.317000e+003
3.060000e+002, 5.160000e+003
3.065000e+002, 4.141000e+003
3.070000e+002, 5.079000e+003
3.075000e+002, 4.581000e+003
3.080000e+002, 3.998000e+003
3.085000e+002, 4.002000e+003
3.090000e+002, 5.268000e+003
3.095000e+002, 5.176000e+003
3.100000e+002, 4.641000e+003
3.105000e+002, 4.222000e+003
3.110000e+002, 3.568000e+003
3.115000e+002, 2.409000e+003
3.120000e+002, 2.607000e+003
3.125000e+002, 4.402000e+003
3.130000e+002, 4.243000e+003
3.135000e+002, 3.652000e+003
3.140000e+002, 4.566000e+003
3.145000e+002, 4.071000e+003
3.150000e+002, 4.282000e+003
3.155000e+002, 3.909000e+003
3.160000e+002, 5.655000e+003
3.165000e+002, 5.206000e+003
3.170000e+002, 4.609000e+003
3.175000e+002, 3.866000e+003
3.180000e+002, 4.647000e+003
3.185000e+002, 4.957000e+003
3.190000e+002, 5.716000e+003
3.195000e+002, 4.376000e+003
3.200000e+002, 5.977000e+003
3.205000e+002, 4.063000e+003
3.210000e+002, 3.615000e+003
3.215000e+002, 2.968000e+003
3.220000e+002, 3.899000e+003
3.225000e+002, 3.236000e+003
3.230000e+002, 4.265000e+003
3.235000e+002, 3.591000e+003
3.240000e+002, 4.279000e+003
3.245000e+002, 2.280000e+003
3.250000e+002, 3.501000e+003
3.255000e+002, 4.771000e+003
3.260000e+002, 4.381000e+003
3.265000e+002, 1.774000e+003
3.270000e+002, 3.468000e+003
3.275000e+002, 3.618000e+003
3.280000e+002, 3.412000e+003
3.285000e+002, 2.710000e+003
3.290000e+002, 2.063000e+003
3.295000e+002, 4.575000e+003
3.300000e+002, 2.839000e+003
3.305000e+002, 2.869000e+003
3.310000e+002, 5.243000e+003
3.315000e+002, 4.258000e+003
3.320000e+002, 3.285000e+003
3.325000e+002, 2.979000e+003
3.330000e+002, 3.458000e+003
3.335000e+002, 2.943000e+003
3.340000e+002, 3.856000e+003
3.345000e+002, 3.274000e+003
3.350000e+002, 4.615000e+003
3.355000e+002, 3.049000e+003
3.360000e+002, 3.790000e+003
3.365000e+002, 3.545000e+003
3.370000e+002, 2.157000e+003
3.375000e+002, 4.710000e+003
3.380000e+002, 4.001000e+003
3.385000e+002, 2.375000e+003
3.390000e+002, 4.243000e+003
3.395000e+002, 2.207000e+003
3.400000e+002, 2.979000e+003
3.405000e+002, 2.364000e+003
3.410000e+002, 1.873000e+003
3.415000e+002, 3.061000e+003
3.420000e+002, 2.235000e+003
3.425000e+002, 3.990000e+003
3.430000e+002, 3.540000e+003
3.435000e+002, 3.580000e+003
3.440000e+002, 3.511000e+003
3.445000e+002, 3.365000e+003
3.450000e+002, 1.767000e+003
3.455000e+002, 3.823000e+003
3.460000e+002, 3.568000e+003
3.465000e+002, 3.747000e+003
3.470000e+002, 3.828000e+003
3.475000e+002, 4.572000e+003
3.480000e+002, 4.951000e+003
3.485000e+002, 4.169000e+003
3.490000e+002, 4.495000e+003
3.495000e+002, 4.690000e+003
3.500000e+002, 3.587000e+003
3.505000e+002, 4.400000e+003
3.510000e+002, 4.524000e+003
3.515000e+002, 2.910000e+003
3.520000e+002, 3.770000e+003
3.525000e+002, 4.376000e+003
3.530000e+002, 3.387000e+003
3.535000e+002, 3.289000e+003
3.540000e+002, 2.396000e+003
3.545000e+002, 2.631000e+003
3.550000e+002, 2.723000e+003
3.555000e+002, 5.502000e+003
3.560000e+002, 1.404000e+003
3.565000e+002, 2.017000e+003
3.570000e+002, 4.058000e+003
3.575000e+002, 4.845000e+003
3.580000e+002, 1.725000e+003
3.585000e+002, 3.398000e+003
3.590000e+002, 5.283000e+003
3.595000e+002, 3.197000e+003
3.600000e+002, 1.671000e+003
3.605000e+002, 3.107000e+003
3.610000e+002, 4.679000e+003
3.615000e+002, 3.354000e+003
3.620000e+002, 3.028000e+003
3.625000e+002, 2.094000e+003
3.630000e+002, 1.270000e+003
3.635000e+002, 2.043000e+003
3.640000e+002, 2.969000e+003
3.645000e+002, 2.423000e+003
3.650000e+002, 4.934000e+003
3.655000e+002, 1.975000e+003
3.660000e+002, 4.769000e+003
3.665000e+002, 2.285000e+003
3.670000e+002, 2.912000e+003
3.675000e+002, 1.749000e+003
3.680000e+002, 1.075000e+003
3.685000e+002, 1.170000e+002
3.690000e+002, 2.659000e+003
3.695000e+002, 3.559000e+003
3.700000e+002, 2.049000e+003
3.705000e+002, 2.191000e+003
3.710000e+002, 3.966000e+003
3.715000e+002, 2.246000e+003
3.720000e+002, 3.336000e+003
3.725000e+002, 1.847000e+003
3.730000e+002, 2.826000e+003
3.735000e+002, 4.337000e+003
3.740000e+002, 2.140000e+003
3.745000e+002, 3.578000e+003
3.750000e+002, 2.214000e+003
3.755000e+002, 2.112000e+003
3.760000e+002, 3.603000e+003
3.765000e+002, 2.785000e+003
3.770000e+002, 3.296000e+003
3.775000e+002, 2.600000e+003
3.780000e+002, 2.510000e+003
3.785000e+002, 3.550000e+003
3.790000e+002, 3.406000e+003
3.795000e+002, 3.036000e+003
3.800000e+002, 3.157000e+003
3.805000e+002, 4.866000e+003
3.810000e+002, 2.432000e+003
3.815000e+002, 4.734000e+003
3.820000e+002, 2.833000e+003
3.825000e+002, 4.148000e+003
3.830000e+002, 3.425000e+003
3.835000e+002, 1.562000e+003
3.840000e+002, 2.072000e+003
3.845000e+002, 2.568000e+003
3.850000e+002, 1.115000e+003
3.855000e+002, 2.810000e+003
3.860000e+002, 1.211000e+003
3.865000e+002, 3.761000e+003
3.870000e+002, 3.107000e+003
3.875000e+002, 3.599000e+003
3.880000e+002, 3.062000e+003
3.885000e+002, 7.760000e+002
3.890000e+002, 2.465000e+003
3.895000e+002, 1.843000e+003
3.900000e+002, 2.133000e+003
3.905000e+002, 1.722000e+003
3.910000e+002, 3.054000e+003
3.915000e+002, 1.030000e+003
3.920000e+002, 1.381000e+003
3.925000e+002, 2.715000e+003
3.930000e+002, 2.864000e+003
3.935000e+002, 2.712000e+003
3.940000e+002, 1.330000e+003
3.945000e+002, 2.647000e+003
3.950000e+002, 2.765000e+003
3.955000e+002, 2.793000e+003
3.960000e+002, 2.961000e+003
3.965000e+002, 1.712000e+003
3.970000e+002, 3.325000e+003
3.975000e+002, 2.458000e+003
3.980000e+002, 2.922000e+003
3.985000e+002, 1.531000e+003
3.990000e+002, 2.178000e+003
3.995000e+002, 3.320000e+003
4.000000e+002, 1.281000e+003
4.005000e+002, 3.087000e+003
4.010000e+002, 2.383000e+003
4.015000e+002, 5.370000e+002
4.020000e+002, 1.373000e+003
4.025000e+002, 1.633000e+003
4.030000e+002, 4.109000e+003
4.035000e+002, 4.263000e+003
4.040000e+002, 2.939000e+003
4.045000e+002, 2.591000e+003
4.050000e+002, 5.890000e+002
4.055000e+002, 1.960000e+003
4.060000e+002, 4.660000e+002
4.065000e+002, 2.126000e+003
4.070000e+002, 1.139000e+003
4.075000e+002, 2.648000e+003
4.080000e+002, 3.205000e+003
4.085000e+002, 3.287000e+003
4.090000e+002, 1.677000e+003
4.095000e+002, 2.944000e+003
4.100000e+002, 1.789000e+003
4.105000e+002, 1.664000e+003
4.110000e+002, 2.120000e+003
4.115000e+002, 2.057000e+003
4.120000e+002, 2.579000e+003
4.125000e+002, 1.177000e+003
4.130000e+002, 1.836000e+003
4.135000e+002, 2.876000e+003
4.140000e+002, 2.343000e+003
4.145000e+002, 1.506000e+003
4.150000e+002, 2.247000e+003
4.155000e+002, 1.404000e+003
4.160000e+002, 2.658000e+003
4.165000e+002, 2.430000e+003
4.170000e+002, 2.012000e+003
4.175000e+002, 1.563000e+003
4.180000e+002, 2.509000e+003
4.185000e+002, 7.860000e+002
4.190000e+002, 2.574000e+003
4.195000e+002, 7.160000e+002
4.200000e+002, 2.015000e+003
4.205000e+002, 2.905000e+003
4.210000e+002, 1.473000e+003
4.215000e+002, 2.633000e+003
4.220000e+002, 3.997000e+003
4.225000e+002, 1.501000e+003
4.230000e+002, 3.407000e+003
4.235000e+002, 2.165000e+003
4.240000e+002, 3.124000e+003
4.245000e+002, 2.730000e+003
4.250000e+002, 9.600000e+002
4.255000e+002, 2.599000e+003
4.260000e+002, 2.371000e+003
4.265000e+002, 1.000000e+003
4.270000e+002, 1.741000e+003
4.275000e+002, 1.774000e+003
4.280000e+002, 1.491000e+003
4.285000e+002, 4.045000e+003
4.290000e+002, 1.617000e+003
4.295000e+002, 1.372000e+003
4.300000e+002, 4.500000e+001
4.305000e+002, 2.055000e+003
4.310000e+002, 1.343000e+003
4.315000e+002, 2.936000e+003
4.320000e+002, 2.951000e+003
4.325000e+002, 1.360000e+003
4.330000e+002, 2.675000e+003
4.335000e+002, 3.624000e+003
4.340000e+002, 1.603000e+003
4.345000e+002, 2.597000e+003
4.350000e+002, 1.707000e+003
4.355000e+002, 3.108000e+003
4.360000e+002, 2.031000e+003
4.365000e+002, 1.231000e+003
4.370000e+002, 4.297000e+003
4.375000e+002, 1.895000e+003
4.380000e+002, 1.473000e+003
4.385000e+002, 2.160000e+002
4.390000e+002, 7.640000e+002
4.395000e+002, 2.714000e+003
4.400000e+002, 1.023000e+003
4.405000e+002, 4.230000e+002
4.410000e+002, 2.633000e+003
4.415000e+002, 2.451000e+003
4.420000e+002, 2.830000e+003
4.425000e+002, 1.790000e+003
4.430000e+002, 2.841000e+003
4.435000e+002, 1.671000e+003
4.440000e+002, 5.200000e+002
4.445000e+002, 2.401000e+003
4.450000e+002, 1.660000e+003
4.455000e+002, 1.669000e+003
4.460000e+002, 3.378000e+003
4.465000e+002, 4.341000e+003
4.470000e+002, 4.721000e+003
4.475000e+002, 2.109000e+003
4.480000e+002, 1.844000e+003
4.485000e+002, 2.670000e+003
4.490000e+002, 2.529000e+003
4.495000e+002, 1.994000e+003
4.500000e+002, 1.734000e+003
4.505000e+002, 7.850000e+002
4.510000e+002, 2.235000e+003
4.515000e+002, 1.281000e+003
4.520000e+002, 4.090000e+003
4.525000e+002, 1.762000e+003
4.530000e+002, 2.292000e+003
4.535000e+002, 2.798000e+003
#ENDOFDATA   : End Of Data and File