#FORMAT	     : EMSA/MAS Spectral Data File
#VERSION     : 1.0
#TITLE       : BG_cal
#DATE        : 
#TIME        : 
#OWNER       : 
#NPOINTS     : 1024
#NCOLUMNS    : 1
#XUNITS      : eV
#YUNITS      : 
#DATATYPE    : XY
#XPERCHAN    : 3.000000e-001
#OFFSET      : 3.834000e+002
#SPECTRUM    : Spectral Data Starts Here
3.834000e+002, 1.458480e+003
3.837000e+002, 1.485373e+003
3.840000e+002, 1.490160e+003
3.843000e+002, 1.499657e+003
3.846000e+002, 1.510071e+003
3.849000e+002, 1.521640e+003
3.852000e+002, 1.523828e+003
3.855000e+002, 1.530853e+003
3.858000e+002, 1.534216e+003
3.861000e+002, 1.543000e+003
3.864000e+002, 1.554682e+003
3.867000e+002, 1.560543e+003
3.870000e+002, 1.567422e+003
3.873000e+002, 1.574966e+003
3.876000e+002, 1.581837e+003
3.879000e+002, 1.591320e+003
3.882000e+002, 1.597793e+003
3.885000e+002, 1.606404e+003
3.888000e+002, 1.613823e+003
3.891000e+002, 1.618160e+003
3.894000e+002, 1.623481e+003
3.897000e+002, 1.629738e+003
3.900000e+002, 1.633310e+003
3.903000e+002, 1.640012e+003
3.906000e+002, 1.645967e+003
3.909000e+002, 1.650925e+003
3.912000e+002, 1.659651e+003
3.915000e+002, 1.665062e+003
3.918000e+002, 1.669556e+003
3.921000e+002, 1.675659e+003
3.924000e+002, 1.683811e+003
3.927000e+002, 1.691337e+003
3.930000e+002, 1.696088e+003
3.933000e+002, 1.703917e+003
3.936000e+002, 1.708153e+003
3.939000e+002, 1.710406e+003
3.942000e+002, 1.717212e+003
3.945000e+002, 1.722510e+003
3.948000e+002, 1.727174e+003
3.951000e+002, 1.732159e+003
3.954000e+002, 1.737811e+003
3.957000e+002, 1.742501e+003
3.960000e+002, 1.749273e+003
3.963000e+002, 1.753734e+003
3.966000e+002, 1.758388e+003
3.969000e+002, 1.760930e+003
3.972000e+002, 1.763232e+003
3.975000e+002, 1.769365e+003
3.978000e+002, 1.775357e+003
3.981000e+002, 1.781705e+003
3.984000e+002, 1.786439e+003
3.987000e+002, 1.791934e+003
3.990000e+002, 1.797916e+003
3.993000e+002, 1.802010e+003
3.996000e+002, 1.805658e+003
3.999000e+002, 1.810254e+003
4.002000e+002, 1.814115e+003
4.005000e+002, 1.818541e+003
4.008000e+002, 1.824441e+003
4.011000e+002, 1.828204e+003
4.014000e+002, 1.831938e+003
4.017000e+002, 1.836312e+003
4.020000e+002, 1.839466e+003
4.023000e+002, 1.844699e+003
4.026000e+002, 1.848716e+003
4.029000e+002, 1.851785e+003
4.032000e+002, 1.855714e+003
4.035000e+002, 1.860305e+003
4.038000e+002, 1.864412e+003
4.041000e+002, 1.867869e+003
4.044000e+002, 1.872939e+003
4.047000e+002, 1.875883e+003
4.050000e+002, 1.879869e+003
4.053000e+002, 1.883014e+003
4.056000e+002, 1.888051e+003
4.059000e+002, 1.893808e+003
4.062000e+002, 1.896937e+003
4.065000e+002, 1.900665e+003
4.068000e+002, 1.904185e+003
4.071000e+002, 1.906875e+003
4.074000e+002, 1.911687e+003
4.077000e+002, 1.912899e+003
4.080000e+002, 1.916724e+003
4.083000e+002, 1.920968e+003
4.086000e+002, 1.924095e+003
4.089000e+002, 1.929652e+003
4.092000e+002, 1.932425e+003
4.095000e+002, 1.935481e+003
4.098000e+002, 1.936342e+003
4.101000e+002, 1.937866e+003
4.104000e+002, 1.941663e+003
4.107000e+002, 1.945275e+003
4.110000e+002, 1.947623e+003
4.113000e+002, 1.953185e+003
4.116000e+002, 1.957859e+003
4.119000e+002, 1.962805e+003
4.122000e+002, 1.964859e+003
4.125000e+002, 1.967578e+003
4.128000e+002, 1.970377e+003
4.131000e+002, 1.974007e+003
4.134000e+002, 1.977077e+003
4.137000e+002, 1.979389e+003
4.140000e+002, 1.981772e+003
4.143000e+002, 1.985964e+003
4.146000e+002, 1.989130e+003
4.149000e+002, 1.992441e+003
4.152000e+002, 1.996166e+003
4.155000e+002, 1.999755e+003
4.158000e+002, 2.002821e+003
4.161000e+002, 2.007265e+003
4.164000e+002, 2.011150e+003
4.167000e+002, 2.014073e+003
4.170000e+002, 2.017723e+003
4.173000e+002, 2.021269e+003
4.176000e+002, 2.024219e+003
4.179000e+002, 2.025996e+003
4.182000e+002, 2.028186e+003
4.185000e+002, 2.033901e+003
4.188000e+002, 2.037761e+003
4.191000e+002, 2.039875e+003
4.194000e+002, 2.041743e+003
4.197000e+002, 2.043556e+003
4.200000e+002, 2.044881e+003
4.203000e+002, 2.045001e+003
4.206000e+002, 2.045146e+003
4.209000e+002, 2.048568e+003
4.212000e+002, 2.052106e+003
4.215000e+002, 2.055324e+003
4.218000e+002, 2.057273e+003
4.221000e+002, 2.060454e+003
4.224000e+002, 2.062974e+003
4.227000e+002, 2.066040e+003
4.230000e+002, 2.067400e+003
4.233000e+002, 2.069626e+003
4.236000e+002, 2.070761e+003
4.239000e+002, 2.073726e+003
4.242000e+002, 2.074755e+003
4.245000e+002, 2.076223e+003
4.248000e+002, 2.075094e+003
4.251000e+002, 2.077716e+003
4.254000e+002, 2.079028e+003
4.257000e+002, 2.080563e+003
4.260000e+002, 2.081720e+003
4.263000e+002, 2.083953e+003
4.266000e+002, 2.088379e+003
4.269000e+002, 2.092646e+003
4.272000e+002, 2.093804e+003
4.275000e+002, 2.096295e+003
4.278000e+002, 2.098542e+003
4.281000e+002, 2.100720e+003
4.284000e+002, 2.102883e+003
4.287000e+002, 2.105985e+003
4.290000e+002, 2.110284e+003
4.293000e+002, 2.113240e+003
4.296000e+002, 2.116937e+003
4.299000e+002, 2.118490e+003
4.302000e+002, 2.120821e+003
4.305000e+002, 2.121177e+003
4.308000e+002, 2.121859e+003
4.311000e+002, 2.124372e+003
4.314000e+002, 2.124168e+003
4.317000e+002, 2.124517e+003
4.320000e+002, 2.124597e+003
4.323000e+002, 2.125673e+003
4.326000e+002, 2.126157e+003
4.329000e+002, 2.127794e+003
4.332000e+002, 2.131783e+003
4.335000e+002, 2.134971e+003
4.338000e+002, 2.137235e+003
4.341000e+002, 2.139811e+003
4.344000e+002, 2.142068e+003
4.347000e+002, 2.141950e+003
4.350000e+002, 2.142793e+003
4.353000e+002, 2.142989e+003
4.356000e+002, 2.145090e+003
4.359000e+002, 2.147171e+003
4.362000e+002, 2.149385e+003
4.365000e+002, 2.150270e+003
4.368000e+002, 2.150761e+003
4.371000e+002, 2.153597e+003
4.374000e+002, 2.153760e+003
4.377000e+002, 2.154135e+003
4.380000e+002, 2.155168e+003
4.383000e+002, 2.156178e+003
4.386000e+002, 2.158927e+003
4.389000e+002, 2.159334e+003
4.392000e+002, 2.162588e+003
4.395000e+002, 2.164781e+003
4.398000e+002, 2.166433e+003
4.401000e+002, 2.169952e+003
4.404000e+002, 2.172372e+003
4.407000e+002, 2.174407e+003
4.410000e+002, 2.177652e+003
4.413000e+002, 2.178968e+003
4.416000e+002, 2.180574e+003
4.419000e+002, 2.180352e+003
4.422000e+002, 2.180978e+003
4.425000e+002, 2.182310e+003
4.428000e+002, 2.182815e+003
4.431000e+002, 2.183396e+003
4.434000e+002, 2.185044e+003
4.437000e+002, 2.185287e+003
4.440000e+002, 2.188348e+003
4.443000e+002, 2.188030e+003
4.446000e+002, 2.188570e+003
4.449000e+002, 2.189017e+003
4.452000e+002, 2.191090e+003
4.455000e+002, 2.194023e+003
4.458000e+002, 2.195676e+003
4.461000e+002, 2.198321e+003
4.464000e+002, 2.200298e+003
4.467000e+002, 2.203935e+003
4.470000e+002, 2.204958e+003
4.473000e+002, 2.205400e+003
4.476000e+002, 2.208452e+003
4.479000e+002, 2.207472e+003
4.482000e+002, 2.208670e+003
4.485000e+002, 2.208807e+003
4.488000e+002, 2.210855e+003
4.491000e+002, 2.212717e+003
4.494000e+002, 2.215061e+003
4.497000e+002, 2.216618e+003
4.500000e+002, 2.218913e+003
4.503000e+002, 2.221042e+003
4.506000e+002, 2.224683e+003
4.509000e+002, 2.225964e+003
4.512000e+002, 2.226521e+003
4.515000e+002, 2.228043e+003
4.518000e+002, 2.230192e+003
4.521000e+002, 2.231207e+003
4.524000e+002, 2.234957e+003
4.527000e+002, 2.236739e+003
4.530000e+002, 2.241166e+003
4.533000e+002, 2.244138e+003
4.536000e+002, 2.247166e+003
4.539000e+002, 2.248353e+003
4.542000e+002, 2.248785e+003
4.545000e+002, 2.250252e+003
4.548000e+002, 2.252294e+003
4.551000e+002, 2.256372e+003
4.554000e+002, 2.256168e+003
4.557000e+002, 2.258557e+003
4.560000e+002, 2.262295e+003
4.563000e+002, 2.262963e+003
4.566000e+002, 2.266344e+003
4.569000e+002, 2.269844e+003
4.572000e+002, 2.273757e+003
4.575000e+002, 2.276468e+003
4.578000e+002, 2.279759e+003
4.581000e+002, 2.284174e+003
4.584000e+002, 2.286341e+003
4.587000e+002, 2.289777e+003
4.590000e+002, 2.293688e+003
4.593000e+002, 2.296615e+003
4.596000e+002, 2.300819e+003
4.599000e+002, 2.306145e+003
4.602000e+002, 2.310480e+003
4.605000e+002, 2.314684e+003
4.608000e+002, 2.320466e+003
4.611000e+002, 2.322116e+003
4.614000e+002, 2.326018e+003
4.617000e+002, 2.328635e+003
4.620000e+002, 2.329759e+003
4.623000e+002, 2.330309e+003
4.626000e+002, 2.333167e+003
4.629000e+002, 2.336170e+003
4.632000e+002, 2.339331e+003
4.635000e+002, 2.342124e+003
4.638000e+002, 2.343440e+003
4.641000e+002, 2.347429e+003
4.644000e+002, 2.348726e+003
4.647000e+002, 2.348491e+003
4.650000e+002, 2.350407e+003
4.653000e+002, 2.349625e+003
4.656000e+002, 2.349708e+003
4.659000e+002, 2.350245e+003
4.662000e+002, 2.350721e+003
4.665000e+002, 2.351688e+003
4.668000e+002, 2.350345e+003
4.671000e+002, 2.351243e+003
4.674000e+002, 2.350698e+003
4.677000e+002, 2.350732e+003
4.680000e+002, 2.349123e+003
4.683000e+002, 2.346612e+003
4.686000e+002, 2.343404e+003
4.689000e+002, 2.340694e+003
4.692000e+002, 2.336585e+003
4.695000e+002, 2.332952e+003
4.698000e+002, 2.329879e+003
4.701000e+002, 2.325459e+003
4.704000e+002, 2.320211e+003
4.707000e+002, 2.317996e+003
4.710000e+002, 2.316578e+003
4.713000e+002, 2.311841e+003
4.716000e+002, 2.308258e+003
4.719000e+002, 2.303475e+003
4.722000e+002, 2.297528e+003
4.725000e+002, 2.291470e+003
4.728000e+002, 2.283059e+003
4.731000e+002, 2.277833e+003
4.734000e+002, 2.273679e+003
4.737000e+002, 2.267641e+003
4.740000e+002, 2.262487e+003
4.743000e+002, 2.255360e+003
4.746000e+002, 2.246826e+003
4.749000e+002, 2.238254e+003
4.752000e+002, 2.229370e+003
4.755000e+002, 2.221440e+003
4.758000e+002, 2.213208e+003
4.761000e+002, 2.204509e+003
4.764000e+002, 2.194062e+003
4.767000e+002, 2.186022e+003
4.770000e+002, 2.177993e+003
4.773000e+002, 2.169223e+003
4.776000e+002, 2.160250e+003
4.779000e+002, 2.150737e+003
4.782000e+002, 2.142651e+003
4.785000e+002, 2.134019e+003
4.788000e+002, 2.126091e+003
4.791000e+002, 2.117032e+003
4.794000e+002, 2.108021e+003
4.797000e+002, 2.097463e+003
4.800000e+002, 2.088072e+003
4.803000e+002, 2.077585e+003
4.806000e+002, 2.067506e+003
4.809000e+002, 2.058308e+003
4.812000e+002, 2.049476e+003
4.815000e+002, 2.040870e+003
4.818000e+002, 2.032123e+003
4.821000e+002, 2.019452e+003
4.824000e+002, 2.008352e+003
4.827000e+002, 1.999701e+003
4.830000e+002, 1.990363e+003
4.833000e+002, 1.981397e+003
4.836000e+002, 1.971970e+003
4.839000e+002, 1.961870e+003
4.842000e+002, 1.951045e+003
4.845000e+002, 1.940581e+003
4.848000e+002, 1.932171e+003
4.851000e+002, 1.924155e+003
4.854000e+002, 1.912623e+003
4.857000e+002, 1.901877e+003
4.860000e+002, 1.893840e+003
4.863000e+002, 1.884541e+003
4.866000e+002, 1.876036e+003
4.869000e+002, 1.865668e+003
4.872000e+002, 1.858059e+003
4.875000e+002, 1.848491e+003
4.878000e+002, 1.839407e+003
4.881000e+002, 1.830717e+003
4.884000e+002, 1.823636e+003
4.887000e+002, 1.817128e+003
4.890000e+002, 1.811101e+003
4.893000e+002, 1.803931e+003
4.896000e+002, 1.794748e+003
4.899000e+002, 1.785515e+003
4.902000e+002, 1.778850e+003
4.905000e+002, 1.769568e+003
4.908000e+002, 1.763428e+003
4.911000e+002, 1.757217e+003
4.914000e+002, 1.752466e+003
4.917000e+002, 1.744858e+003
4.920000e+002, 1.738614e+003
4.923000e+002, 1.731465e+003
4.926000e+002, 1.726108e+003
4.929000e+002, 1.719441e+003
4.932000e+002, 1.714088e+003
4.935000e+002, 1.707901e+003
4.938000e+002, 1.701439e+003
4.941000e+002, 1.696801e+003
4.944000e+002, 1.693199e+003
4.947000e+002, 1.687174e+003
4.950000e+002, 1.683217e+003
4.953000e+002, 1.677545e+003
4.956000e+002, 1.673247e+003
4.959000e+002, 1.666552e+003
4.962000e+002, 1.660768e+003
4.965000e+002, 1.655101e+003
4.968000e+002, 1.650116e+003
4.971000e+002, 1.643782e+003
4.974000e+002, 1.638635e+003
4.977000e+002, 1.634101e+003
4.980000e+002, 1.629713e+003
4.983000e+002, 1.625520e+003
4.986000e+002, 1.622222e+003
4.989000e+002, 1.617684e+003
4.992000e+002, 1.614156e+003
4.995000e+002, 1.610593e+003
4.998000e+002, 1.605928e+003
5.001000e+002, 1.600723e+003
5.004000e+002, 1.598390e+003
5.007000e+002, 1.593739e+003
5.010000e+002, 1.590214e+003
5.013000e+002, 1.587153e+003
5.016000e+002, 1.584830e+003
5.019000e+002, 1.581441e+003
5.022000e+002, 1.578821e+003
5.025000e+002, 1.576412e+003
5.028000e+002, 1.573150e+003
5.031000e+002, 1.570332e+003
5.034000e+002, 1.567288e+003
5.037000e+002, 1.565441e+003
5.040000e+002, 1.563652e+003
5.043000e+002, 1.561472e+003
5.046000e+002, 1.559212e+003
5.049000e+002, 1.556946e+003
5.052000e+002, 1.555515e+003
5.055000e+002, 1.554468e+003
5.058000e+002, 1.553161e+003
5.061000e+002, 1.551015e+003
5.064000e+002, 1.547539e+003
5.067000e+002, 1.544752e+003
5.070000e+002, 1.542819e+003
5.073000e+002, 1.539371e+003
5.076000e+002, 1.536692e+003
5.079000e+002, 1.534683e+003
5.082000e+002, 1.532178e+003
5.085000e+002, 1.531083e+003
5.088000e+002, 1.529037e+003
5.091000e+002, 1.526023e+003
5.094000e+002, 1.523075e+003
5.097000e+002, 1.520731e+003
5.100000e+002, 1.518636e+003
5.103000e+002, 1.515859e+003
5.106000e+002, 1.511339e+003
5.109000e+002, 1.508172e+003
5.112000e+002, 1.504967e+003
5.115000e+002, 1.501447e+003
5.118000e+002, 1.499615e+003
5.121000e+002, 1.496432e+003
5.124000e+002, 1.490578e+003
5.127000e+002, 1.487828e+003
5.130000e+002, 1.483804e+003
5.133000e+002, 1.480392e+003
5.136000e+002, 1.477749e+003
5.139000e+002, 1.476313e+003
5.142000e+002, 1.471748e+003
5.145000e+002, 1.469938e+003
5.148000e+002, 1.467121e+003
5.151000e+002, 1.466211e+003
5.154000e+002, 1.464252e+003
5.157000e+002, 1.461200e+003
5.160000e+002, 1.457845e+003
5.163000e+002, 1.455910e+003
5.166000e+002, 1.452509e+003
5.169000e+002, 1.451091e+003
5.172000e+002, 1.447444e+003
5.175000e+002, 1.443894e+003
5.178000e+002, 1.441091e+003
5.181000e+002, 1.439685e+003
5.184000e+002, 1.436868e+003
5.187000e+002, 1.433103e+003
5.190000e+002, 1.433560e+003
5.193000e+002, 1.434393e+003
5.196000e+002, 1.430997e+003
5.199000e+002, 1.429526e+003
5.202000e+002, 1.428466e+003
5.205000e+002, 1.425766e+003
5.208000e+002, 1.424663e+003
5.211000e+002, 1.425892e+003
5.214000e+002, 1.422995e+003
5.217000e+002, 1.422301e+003
5.220000e+002, 1.421470e+003
5.223000e+002, 1.418995e+003
5.226000e+002, 1.413325e+003
5.229000e+002, 1.411007e+003
5.232000e+002, 1.407135e+003
5.235000e+002, 1.404535e+003
5.238000e+002, 1.401565e+003
5.241000e+002, 1.397120e+003
5.244000e+002, 1.394741e+003
5.247000e+002, 1.393772e+003
5.250000e+002, 1.390782e+003
5.253000e+002, 1.389473e+003
5.256000e+002, 1.386768e+003
5.259000e+002, 1.385422e+003
5.262000e+002, 1.382577e+003
5.265000e+002, 1.382815e+003
5.268000e+002, 1.383062e+003
5.271000e+002, 1.382225e+003
5.274000e+002, 1.381076e+003
5.277000e+002, 1.377308e+003
5.280000e+002, 1.373377e+003
5.283000e+002, 1.370461e+003
5.286000e+002, 1.367230e+003
5.289000e+002, 1.365992e+003
5.292000e+002, 1.364977e+003
5.295000e+002, 1.362406e+003
5.298000e+002, 1.359491e+003
5.301000e+002, 1.358403e+003
5.304000e+002, 1.355632e+003
5.307000e+002, 1.355156e+003
5.310000e+002, 1.353509e+003
5.313000e+002, 1.354039e+003
5.316000e+002, 1.352121e+003
5.319000e+002, 1.351112e+003
5.322000e+002, 1.349276e+003
5.325000e+002, 1.348135e+003
5.328000e+002, 1.348472e+003
5.331000e+002, 1.348161e+003
5.334000e+002, 1.346675e+003
5.337000e+002, 1.345974e+003
5.340000e+002, 1.344961e+003
5.343000e+002, 1.342996e+003
5.346000e+002, 1.341632e+003
5.349000e+002, 1.341738e+003
5.352000e+002, 1.338506e+003
5.355000e+002, 1.335621e+003
5.358000e+002, 1.333766e+003
5.361000e+002, 1.331836e+003
5.364000e+002, 1.329720e+003
5.367000e+002, 1.329716e+003
5.370000e+002, 1.330432e+003
5.373000e+002, 1.329268e+003
5.376000e+002, 1.326269e+003
5.379000e+002, 1.321280e+003
5.382000e+002, 1.319647e+003
5.385000e+002, 1.318415e+003
5.388000e+002, 1.318408e+003
5.391000e+002, 1.315917e+003
5.394000e+002, 1.313552e+003
5.397000e+002, 1.312885e+003
5.400000e+002, 1.311252e+003
5.403000e+002, 1.310705e+003
5.406000e+002, 1.309735e+003
5.409000e+002, 1.307760e+003
5.412000e+002, 1.303754e+003
5.415000e+002, 1.302476e+003
5.418000e+002, 1.298808e+003
5.421000e+002, 1.297117e+003
5.424000e+002, 1.295069e+003
5.427000e+002, 1.292899e+003
5.430000e+002, 1.291228e+003
5.433000e+002, 1.288531e+003
5.436000e+002, 1.286537e+003
5.439000e+002, 1.285897e+003
5.442000e+002, 1.284640e+003
5.445000e+002, 1.283463e+003
5.448000e+002, 1.281243e+003
5.451000e+002, 1.280339e+003
5.454000e+002, 1.278428e+003
5.457000e+002, 1.276003e+003
5.460000e+002, 1.274001e+003
5.463000e+002, 1.272759e+003
5.466000e+002, 1.273099e+003
5.469000e+002, 1.270233e+003
5.472000e+002, 1.268239e+003
5.475000e+002, 1.266280e+003
5.478000e+002, 1.268394e+003
5.481000e+002, 1.267068e+003
5.484000e+002, 1.264182e+003
5.487000e+002, 1.260490e+003
5.490000e+002, 1.257581e+003
5.493000e+002, 1.254163e+003
5.496000e+002, 1.253244e+003
5.499000e+002, 1.252068e+003
5.502000e+002, 1.248992e+003
5.505000e+002, 1.250389e+003
5.508000e+002, 1.248026e+003
5.511000e+002, 1.247272e+003
5.514000e+002, 1.246021e+003
5.517000e+002, 1.245087e+003
5.520000e+002, 1.243828e+003
5.523000e+002, 1.241608e+003
5.526000e+002, 1.237639e+003
5.529000e+002, 1.235343e+003
5.532000e+002, 1.232862e+003
5.535000e+002, 1.231434e+003
5.538000e+002, 1.229320e+003
5.541000e+002, 1.226310e+003
5.544000e+002, 1.225303e+003
5.547000e+002, 1.224465e+003
5.550000e+002, 1.222833e+003
5.553000e+002, 1.220577e+003
5.556000e+002, 1.219506e+003
5.559000e+002, 1.217862e+003
5.562000e+002, 1.214563e+003
5.565000e+002, 1.209843e+003
5.568000e+002, 1.208086e+003
5.571000e+002, 1.205906e+003
5.574000e+002, 1.205263e+003
5.577000e+002, 1.204581e+003
5.580000e+002, 1.203283e+003
5.583000e+002, 1.201041e+003
5.586000e+002, 1.200885e+003
5.589000e+002, 1.198192e+003
5.592000e+002, 1.195481e+003
5.595000e+002, 1.193244e+003
5.598000e+002, 1.190023e+003
5.601000e+002, 1.188298e+003
5.604000e+002, 1.187183e+003
5.607000e+002, 1.186499e+003
5.610000e+002, 1.184150e+003
5.613000e+002, 1.182421e+003
5.616000e+002, 1.180145e+003
5.619000e+002, 1.178039e+003
5.622000e+002, 1.177385e+003
5.625000e+002, 1.175937e+003
5.628000e+002, 1.174628e+003
5.631000e+002, 1.171872e+003
5.634000e+002, 1.171338e+003
5.637000e+002, 1.171382e+003
5.640000e+002, 1.170277e+003
5.643000e+002, 1.169549e+003
5.646000e+002, 1.168408e+003
5.649000e+002, 1.167928e+003
5.652000e+002, 1.166110e+003
5.655000e+002, 1.163959e+003
5.658000e+002, 1.163850e+003
5.661000e+002, 1.161371e+003
5.664000e+002, 1.159149e+003
5.667000e+002, 1.158197e+003
5.670000e+002, 1.157102e+003
5.673000e+002, 1.154186e+003
5.676000e+002, 1.153255e+003
5.679000e+002, 1.151326e+003
5.682000e+002, 1.149699e+003
5.685000e+002, 1.148761e+003
5.688000e+002, 1.146263e+003
5.691000e+002, 1.143840e+003
5.694000e+002, 1.141549e+003
5.697000e+002, 1.139737e+003
5.700000e+002, 1.140305e+003
5.703000e+002, 1.138263e+003
5.706000e+002, 1.138716e+003
5.709000e+002, 1.136692e+003
5.712000e+002, 1.135632e+003
5.715000e+002, 1.134659e+003
5.718000e+002, 1.134890e+003
5.721000e+002, 1.131687e+003
5.724000e+002, 1.127999e+003
5.727000e+002, 1.126182e+003
5.730000e+002, 1.124679e+003
5.733000e+002, 1.121923e+003
5.736000e+002, 1.120468e+003
5.739000e+002, 1.119686e+003
5.742000e+002, 1.117383e+003
5.745000e+002, 1.116568e+003
5.748000e+002, 1.115371e+003
5.751000e+002, 1.113806e+003
5.754000e+002, 1.111157e+003
5.757000e+002, 1.109204e+003
5.760000e+002, 1.108470e+003
5.763000e+002, 1.108385e+003
5.766000e+002, 1.109676e+003
5.769000e+002, 1.109313e+003
5.772000e+002, 1.107590e+003
5.775000e+002, 1.105875e+003
5.778000e+002, 1.103830e+003
5.781000e+002, 1.103964e+003
5.784000e+002, 1.103636e+003
5.787000e+002, 1.102582e+003
5.790000e+002, 1.101903e+003
5.793000e+002, 1.100476e+003
5.796000e+002, 1.100657e+003
5.799000e+002, 1.101608e+003
5.802000e+002, 1.101305e+003
5.805000e+002, 1.098148e+003
5.808000e+002, 1.097106e+003
5.811000e+002, 1.100480e+003
5.814000e+002, 1.101866e+003
5.817000e+002, 1.101486e+003
5.820000e+002, 1.100188e+003
5.823000e+002, 1.098949e+003
5.826000e+002, 1.098338e+003
5.829000e+002, 1.097957e+003
5.832000e+002, 1.096193e+003
5.835000e+002, 1.096830e+003
5.838000e+002, 1.097582e+003
5.841000e+002, 1.098102e+003
5.844000e+002, 1.097836e+003
5.847000e+002, 1.096759e+003
5.850000e+002, 1.096577e+003
5.853000e+002, 1.093946e+003
5.856000e+002, 1.094476e+003
5.859000e+002, 1.094819e+003
5.862000e+002, 1.095530e+003
5.865000e+002, 1.095346e+003
5.868000e+002, 1.093150e+003
5.871000e+002, 1.092382e+003
5.874000e+002, 1.091207e+003
5.877000e+002, 1.092212e+003
5.880000e+002, 1.090819e+003
5.883000e+002, 1.087594e+003
5.886000e+002, 1.084743e+003
5.889000e+002, 1.083724e+003
5.892000e+002, 1.083906e+003
5.895000e+002, 1.084028e+003
5.898000e+002, 1.080783e+003
5.901000e+002, 1.078941e+003
5.904000e+002, 1.078377e+003
5.907000e+002, 1.079043e+003
5.910000e+002, 1.078088e+003
5.913000e+002, 1.078676e+003
5.916000e+002, 1.080360e+003
5.919000e+002, 1.079509e+003
5.922000e+002, 1.079804e+003
5.925000e+002, 1.078434e+003
5.928000e+002, 1.078302e+003
5.931000e+002, 1.078815e+003
5.934000e+002, 1.080669e+003
5.937000e+002, 1.078750e+003
5.940000e+002, 1.078149e+003
5.943000e+002, 1.077790e+003
5.946000e+002, 1.076912e+003
5.949000e+002, 1.076346e+003
5.952000e+002, 1.075578e+003
5.955000e+002, 1.075240e+003
5.958000e+002, 1.075546e+003
5.961000e+002, 1.076512e+003
5.964000e+002, 1.076419e+003
5.967000e+002, 1.077721e+003
5.970000e+002, 1.080434e+003
5.973000e+002, 1.080143e+003
5.976000e+002, 1.080477e+003
5.979000e+002, 1.080422e+003
5.982000e+002, 1.079828e+003
5.985000e+002, 1.079517e+003
5.988000e+002, 1.080621e+003
5.991000e+002, 1.080415e+003
5.994000e+002, 1.080822e+003
5.997000e+002, 1.082148e+003
6.000000e+002, 1.081628e+003
6.003000e+002, 1.081117e+003
6.006000e+002, 1.082189e+003
6.009000e+002, 1.081563e+003
6.012000e+002, 1.084236e+003
6.015000e+002, 1.083887e+003
6.018000e+002, 1.083343e+003
6.021000e+002, 1.081274e+003
6.024000e+002, 1.082302e+003
6.027000e+002, 1.084186e+003
6.030000e+002, 1.084634e+003
6.033000e+002, 1.086094e+003
6.036000e+002, 1.086830e+003
6.039000e+002, 1.087047e+003
6.042000e+002, 1.088501e+003
6.045000e+002, 1.089226e+003
6.048000e+002, 1.088279e+003
6.051000e+002, 1.088157e+003
6.054000e+002, 1.087208e+003
6.057000e+002, 1.087559e+003
6.060000e+002, 1.089963e+003
6.063000e+002, 1.090084e+003
6.066000e+002, 1.090148e+003
6.069000e+002, 1.090971e+003
6.072000e+002, 1.091865e+003
6.075000e+002, 1.091855e+003
6.078000e+002, 1.092141e+003
6.081000e+002, 1.091509e+003
6.084000e+002, 1.091273e+003
6.087000e+002, 1.091716e+003
6.090000e+002, 1.090378e+003
6.093000e+002, 1.089799e+003
6.096000e+002, 1.091046e+003
6.099000e+002, 1.088389e+003
6.102000e+002, 1.089997e+003
6.105000e+002, 1.090115e+003
6.108000e+002, 1.090639e+003
6.111000e+002, 1.089875e+003
6.114000e+002, 1.090433e+003
6.117000e+002, 1.091432e+003
6.120000e+002, 1.091895e+003
6.123000e+002, 1.091960e+003
6.126000e+002, 1.093059e+003
6.129000e+002, 1.093244e+003
6.132000e+002, 1.094210e+003
6.135000e+002, 1.095415e+003
6.138000e+002, 1.096207e+003
6.141000e+002, 1.097574e+003
6.144000e+002, 1.098157e+003
6.147000e+002, 1.097825e+003
6.150000e+002, 1.100582e+003
6.153000e+002, 1.103694e+003
6.156000e+002, 1.103599e+003
6.159000e+002, 1.105851e+003
6.162000e+002, 1.106371e+003
6.165000e+002, 1.108486e+003
6.168000e+002, 1.111510e+003
6.171000e+002, 1.113875e+003
6.174000e+002, 1.116150e+003
6.177000e+002, 1.118684e+003
6.180000e+002, 1.121368e+003
6.183000e+002, 1.122869e+003
6.186000e+002, 1.125926e+003
6.189000e+002, 1.128033e+003
6.192000e+002, 1.131081e+003
6.195000e+002, 1.134128e+003
6.198000e+002, 1.139811e+003
6.201000e+002, 1.141811e+003
6.204000e+002, 1.143905e+003
6.207000e+002, 1.146720e+003
6.210000e+002, 1.148761e+003
6.213000e+002, 1.152088e+003
6.216000e+002, 1.155810e+003
6.219000e+002, 1.157535e+003
6.222000e+002, 1.160807e+003
6.225000e+002, 1.163774e+003
6.228000e+002, 1.167854e+003
6.231000e+002, 1.171172e+003
6.234000e+002, 1.174261e+003
6.237000e+002, 1.175266e+003
6.240000e+002, 1.176639e+003
6.243000e+002, 1.182800e+003
6.246000e+002, 1.185612e+003
6.249000e+002, 1.189932e+003
6.252000e+002, 1.193546e+003
6.255000e+002, 1.196101e+003
6.258000e+002, 1.199025e+003
6.261000e+002, 1.202292e+003
6.264000e+002, 1.206990e+003
6.267000e+002, 1.211858e+003
6.270000e+002, 1.215666e+003
6.273000e+002, 1.220008e+003
6.276000e+002, 1.223274e+003
6.279000e+002, 1.227713e+003
6.282000e+002, 1.231868e+003
6.285000e+002, 1.233276e+003
6.288000e+002, 1.237626e+003
6.291000e+002, 1.241028e+003
6.294000e+002, 1.245954e+003
6.297000e+002, 1.251461e+003
6.300000e+002, 1.256586e+003
6.303000e+002, 1.261108e+003
6.306000e+002, 1.267652e+003
6.309000e+002, 1.272263e+003
6.312000e+002, 1.276465e+003
6.315000e+002, 1.280560e+003
6.318000e+002, 1.284320e+003
6.321000e+002, 1.288532e+003
6.324000e+002, 1.292115e+003
6.327000e+002, 1.298257e+003
6.330000e+002, 1.303018e+003
6.333000e+002, 1.307865e+003
6.336000e+002, 1.312448e+003
6.339000e+002, 1.318521e+003
6.342000e+002, 1.323610e+003
6.345000e+002, 1.328897e+003
6.348000e+002, 1.334342e+003
6.351000e+002, 1.339323e+003
6.354000e+002, 1.344072e+003
6.357000e+002, 1.348635e+003
6.360000e+002, 1.353054e+003
6.363000e+002, 1.358515e+003
6.366000e+002, 1.363425e+003
6.369000e+002, 1.369207e+003
6.372000e+002, 1.375459e+003
6.375000e+002, 1.380767e+003
6.378000e+002, 1.386495e+003
6.381000e+002, 1.391121e+003
6.384000e+002, 1.396841e+003
6.387000e+002, 1.402632e+003
6.390000e+002, 1.408848e+003
6.393000e+002, 1.414581e+003
6.396000e+002, 1.419411e+003
6.399000e+002, 1.427030e+003
6.402000e+002, 1.432599e+003
6.405000e+002, 1.438401e+003
6.408000e+002, 1.445731e+003
6.411000e+002, 1.451847e+003
6.414000e+002, 1.456379e+003
6.417000e+002, 1.460774e+003
6.420000e+002, 1.466697e+003
6.423000e+002, 1.472223e+003
6.426000e+002, 1.475701e+003
6.429000e+002, 1.481435e+003
6.432000e+002, 1.487268e+003
6.435000e+002, 1.492668e+003
6.438000e+002, 1.497255e+003
6.441000e+002, 1.501894e+003
6.444000e+002, 1.508542e+003
6.447000e+002, 1.515011e+003
6.450000e+002, 1.518568e+003
6.453000e+002, 1.521313e+003
6.456000e+002, 1.526248e+003
6.459000e+002, 1.532257e+003
6.462000e+002, 1.536073e+003
6.465000e+002, 1.540297e+003
6.468000e+002, 1.543044e+003
6.471000e+002, 1.547433e+003
6.474000e+002, 1.549581e+003
6.477000e+002, 1.551577e+003
6.480000e+002, 1.552481e+003
6.483000e+002, 1.555590e+003
6.486000e+002, 1.556983e+003
6.489000e+002, 1.559535e+003
6.492000e+002, 1.561454e+003
6.495000e+002, 1.564599e+003
6.498000e+002, 1.568594e+003
6.501000e+002, 1.573964e+003
6.504000e+002, 1.577236e+003
6.507000e+002, 1.578443e+003
6.510000e+002, 1.581457e+003
6.513000e+002, 1.583635e+003
6.516000e+002, 1.585963e+003
6.519000e+002, 1.587239e+003
6.522000e+002, 1.589797e+003
6.525000e+002, 1.593001e+003
6.528000e+002, 1.594127e+003
6.531000e+002, 1.596284e+003
6.534000e+002, 1.599659e+003
6.537000e+002, 1.604879e+003
6.540000e+002, 1.609433e+003
6.543000e+002, 1.610418e+003
6.546000e+002, 1.610832e+003
6.549000e+002, 1.613036e+003
6.552000e+002, 1.615160e+003
6.555000e+002, 1.619105e+003
6.558000e+002, 1.620359e+003
6.561000e+002, 1.623372e+003
6.564000e+002, 1.625725e+003
6.567000e+002, 1.629185e+003
6.570000e+002, 1.633723e+003
6.573000e+002, 1.638135e+003
6.576000e+002, 1.640477e+003
6.579000e+002, 1.644897e+003
6.582000e+002, 1.645983e+003
6.585000e+002, 1.647395e+003
6.588000e+002, 1.647039e+003
6.591000e+002, 1.648862e+003
6.594000e+002, 1.651542e+003
6.597000e+002, 1.651964e+003
6.600000e+002, 1.653422e+003
6.603000e+002, 1.654639e+003
6.606000e+002, 1.657469e+003
6.609000e+002, 1.656965e+003
6.612000e+002, 1.655615e+003
6.615000e+002, 1.657399e+003
6.618000e+002, 1.658041e+003
6.621000e+002, 1.656437e+003
6.624000e+002, 1.654919e+003
6.627000e+002, 1.653788e+003
6.630000e+002, 1.653509e+003
6.633000e+002, 1.654469e+003
6.636000e+002, 1.654490e+003
6.639000e+002, 1.655068e+003
6.642000e+002, 1.653672e+003
6.645000e+002, 1.653415e+003
6.648000e+002, 1.652549e+003
6.651000e+002, 1.651535e+003
6.654000e+002, 1.651521e+003
6.657000e+002, 1.649236e+003
6.660000e+002, 1.646724e+003
6.663000e+002, 1.644901e+003
6.666000e+002, 1.642723e+003
6.669000e+002, 1.641912e+003
6.672000e+002, 1.640328e+003
6.675000e+002, 1.639897e+003
6.678000e+002, 1.637345e+003
6.681000e+002, 1.635909e+003
6.684000e+002, 1.637177e+003
6.687000e+002, 1.637612e+003
6.690000e+002, 1.638248e+003
6.693000e+002, 1.637942e+003
6.696000e+002, 1.637801e+003
6.699000e+002, 1.638258e+003
6.702000e+002, 1.637982e+003
6.705000e+002, 1.636377e+003
6.708000e+002, 1.636895e+003
6.711000e+002, 1.636479e+003
6.714000e+002, 1.637062e+003
6.717000e+002, 1.637703e+003
6.720000e+002, 1.636099e+003
6.723000e+002, 1.633571e+003
6.726000e+002, 1.632406e+003
6.729000e+002, 1.633155e+003
6.732000e+002, 1.630492e+003
6.735000e+002, 1.630426e+003
6.738000e+002, 1.629861e+003
6.741000e+002, 1.627724e+003
6.744000e+002, 1.626543e+003
6.747000e+002, 1.626810e+003
6.750000e+002, 1.626872e+003
6.753000e+002, 1.626110e+003
6.756000e+002, 1.625160e+003
6.759000e+002, 1.626721e+003
6.762000e+002, 1.625852e+003
6.765000e+002, 1.625513e+003
6.768000e+002, 1.627103e+003
6.771000e+002, 1.623920e+003
6.774000e+002, 1.622174e+003
6.777000e+002, 1.619414e+003
6.780000e+002, 1.616694e+003
6.783000e+002, 1.616567e+003
6.786000e+002, 1.614978e+003
6.789000e+002, 1.614195e+003
6.792000e+002, 1.612539e+003
6.795000e+002, 1.609395e+003
6.798000e+002, 1.608750e+003
6.801000e+002, 1.605363e+003
6.804000e+002, 1.603407e+003
6.807000e+002, 1.602320e+003
6.810000e+002, 1.602494e+003
6.813000e+002, 1.600574e+003
6.816000e+002, 1.597589e+003
6.819000e+002, 1.599690e+003
6.822000e+002, 1.598450e+003
6.825000e+002, 1.597593e+003
6.828000e+002, 1.596499e+003
6.831000e+002, 1.595872e+003
6.834000e+002, 1.593985e+003
6.837000e+002, 1.592219e+003
6.840000e+002, 1.592222e+003
6.843000e+002, 1.589276e+003
6.846000e+002, 1.586389e+003
6.849000e+002, 1.585301e+003
6.852000e+002, 1.583708e+003
6.855000e+002, 1.580353e+003
6.858000e+002, 1.580135e+003
6.861000e+002, 1.577890e+003
6.864000e+002, 1.577121e+003
6.867000e+002, 1.575330e+003
6.870000e+002, 1.573510e+003
6.873000e+002, 1.572227e+003
6.876000e+002, 1.572893e+003
6.879000e+002, 1.571515e+003
6.882000e+002, 1.572939e+003
6.885000e+002, 1.567883e+003
6.888000e+002, 1.568349e+003
6.891000e+002, 1.563942e+003
6.894000e+002, 1.558851e+003
6.897000e+002, 1.563840e+003
6.900000e+002, 1.564627e+003
6.903000e+002, 1.532960e+003
#ENDOFDATA   : End Of Data and File