#FORMAT	     : EMSA/MAS Spectral Data File
#VERSION     : 1.0
#TITLE       : LL_cal
#DATE        : 
#TIME        : 
#OWNER       : 
#NPOINTS     : 1024
#NCOLUMNS    : 1
#XUNITS      : eV
#YUNITS      : 
#DATATYPE    : XY
#XPERCHAN    : 5.000000e-001
#OFFSET      : -5.850000e+001
#SPECTRUM    : Spectral Data Starts Here
-5.850000e+001, -8.890000e+002
-5.800000e+001, 5.830000e+002
-5.750000e+001, 2.165000e+003
-5.700000e+001, 6.690000e+002
-5.650000e+001, -6.170000e+002
-5.600000e+001, -9.810000e+002
-5.550000e+001, -5.520000e+002
-5.500000e+001, -8.520000e+002
-5.450000e+001, -1.399000e+003
-5.400000e+001, 4.600000e+001
-5.350000e+001, 5.890000e+002
-5.300000e+001, -2.220000e+002
-5.250000e+001, -1.035000e+003
-5.200000e+001, -7.880000e+002
-5.150000e+001, 4.070000e+002
-5.100000e+001, 1.068000e+003
-5.050000e+001, 7.250000e+002
-5.000000e+001, -5.640000e+002
-4.950000e+001, -3.330000e+002
-4.900000e+001, 7.670000e+002
-4.850000e+001, -4.390000e+002
-4.800000e+001, -1.063000e+003
-4.750000e+001, -1.409000e+003
-4.700000e+001, -1.381000e+003
-4.650000e+001, -8.880000e+002
-4.600000e+001, -8.300000e+001
-4.550000e+001, -5.000000e+000
-4.500000e+001, -6.200000e+001
-4.450000e+001, 4.000000e+001
-4.400000e+001, 8.100000e+001
-4.350000e+001, -3.160000e+002
-4.300000e+001, -3.330000e+002
-4.250000e+001, 5.260000e+002
-4.200000e+001, -2.800000e+001
-4.150000e+001, -6.020000e+002
-4.100000e+001, 7.860000e+002
-4.050000e+001, 7.710000e+002
-4.000000e+001, -4.400000e+001
-3.950000e+001, -4.150000e+002
-3.900000e+001, 1.100000e+002
-3.850000e+001, 1.010000e+003
-3.800000e+001, 9.770000e+002
-3.750000e+001, 5.610000e+002
-3.700000e+001, -5.010000e+002
-3.650000e+001, -1.293000e+003
-3.600000e+001, -4.620000e+002
-3.550000e+001, 6.350000e+002
-3.500000e+001, 1.100000e+002
-3.450000e+001, -1.710000e+002
-3.400000e+001, 5.510000e+002
-3.350000e+001, -4.960000e+002
-3.300000e+001, -1.149000e+003
-3.250000e+001, -7.060000e+002
-3.200000e+001, -6.340000e+002
-3.150000e+001, 6.300000e+001
-3.100000e+001, 4.430000e+002
-3.050000e+001, -5.150000e+002
-3.000000e+001, -1.209000e+003
-2.950000e+001, -4.230000e+002
-2.900000e+001, -4.300000e+001
-2.850000e+001, 1.610000e+002
-2.800000e+001, -4.480000e+002
-2.750000e+001, -6.440000e+002
-2.700000e+001, -2.240000e+002
-2.650000e+001, 3.280000e+002
-2.600000e+001, 9.040000e+002
-2.550000e+001, 5.350000e+002
-2.500000e+001, 7.530000e+002
-2.450000e+001, 7.010000e+002
-2.400000e+001, 1.492000e+003
-2.350000e+001, 5.570000e+002
-2.300000e+001, -7.870000e+002
-2.250000e+001, 5.670000e+002
-2.200000e+001, 9.130000e+002
-2.150000e+001, 3.200000e+002
-2.100000e+001, -3.830000e+002
-2.050000e+001, 7.900000e+002
-2.000000e+001, 5.450000e+002
-1.950000e+001, 6.400000e+002
-1.900000e+001, 1.707000e+003
-1.850000e+001, 8.900000e+001
-1.800000e+001, 9.000000e+002
-1.750000e+001, 2.490000e+003
-1.700000e+001, 1.846000e+003
-1.650000e+001, 1.294000e+003
-1.600000e+001, 1.980000e+003
-1.550000e+001, 1.907000e+003
-1.500000e+001, 1.154000e+003
-1.450000e+001, 1.791000e+003
-1.400000e+001, 2.452000e+003
-1.350000e+001, 2.800000e+003
-1.300000e+001, 3.042000e+003
-1.250000e+001, 2.612000e+003
-1.200000e+001, 4.352000e+003
-1.150000e+001, 4.586000e+003
-1.100000e+001, 5.002000e+003
-1.050000e+001, 6.094000e+003
-1.000000e+001, 6.928000e+003
-9.500000e+000, 8.159000e+003
-9.000000e+000, 1.003000e+004
-8.500000e+000, 1.291700e+004
-8.000000e+000, 1.504300e+004
-7.500000e+000, 1.671900e+004
-7.000000e+000, 2.139500e+004
-6.500000e+000, 2.758100e+004
-6.000000e+000, 3.442700e+004
-5.500000e+000, 4.346200e+004
-5.000000e+000, 5.952400e+004
-4.500000e+000, 1.008420e+005
-4.000000e+000, 2.008470e+005
-3.500000e+000, 4.269240e+005
-3.000000e+000, 8.851120e+005
-2.500000e+000, 1.729468e+006
-2.000000e+000, 3.193577e+006
-1.500000e+000, 5.908911e+006
-1.000000e+000, 1.160311e+007
-5.000000e-001, 2.044393e+007
0.000000e+000, 2.513010e+007
5.000000e-001, 1.997192e+007
1.000000e+000, 1.154256e+007
1.500000e+000, 6.175641e+006
2.000000e+000, 3.482700e+006
2.500000e+000, 1.999898e+006
3.000000e+000, 1.132440e+006
3.500000e+000, 6.493890e+005
4.000000e+000, 3.951450e+005
4.500000e+000, 2.722980e+005
5.000000e+000, 2.117920e+005
5.500000e+000, 1.750380e+005
6.000000e+000, 1.556190e+005
6.500000e+000, 1.372790e+005
7.000000e+000, 1.234140e+005
7.500000e+000, 1.160710e+005
8.000000e+000, 1.117820e+005
8.500000e+000, 1.090510e+005
9.000000e+000, 1.056730e+005
9.500000e+000, 1.054060e+005
1.000000e+001, 1.046160e+005
1.050000e+001, 1.027010e+005
1.100000e+001, 1.028920e+005
1.150000e+001, 1.036510e+005
1.200000e+001, 1.048370e+005
1.250000e+001, 1.056200e+005
1.300000e+001, 1.068300e+005
1.350000e+001, 1.073830e+005
1.400000e+001, 1.091650e+005
1.450000e+001, 1.137380e+005
1.500000e+001, 1.172190e+005
1.550000e+001, 1.193330e+005
1.600000e+001, 1.247080e+005
1.650000e+001, 1.274950e+005
1.700000e+001, 1.290070e+005
1.750000e+001, 1.321790e+005
1.800000e+001, 1.376090e+005
1.850000e+001, 1.424280e+005
1.900000e+001, 1.493850e+005
1.950000e+001, 1.587070e+005
2.000000e+001, 1.680730e+005
2.050000e+001, 1.778680e+005
2.100000e+001, 1.854510e+005
2.150000e+001, 1.922730e+005
2.200000e+001, 1.975550e+005
2.250000e+001, 1.987780e+005
2.300000e+001, 1.979040e+005
2.350000e+001, 1.928970e+005
2.400000e+001, 1.848350e+005
2.450000e+001, 1.762130e+005
2.500000e+001, 1.660300e+005
2.550000e+001, 1.567050e+005
2.600000e+001, 1.474730e+005
2.650000e+001, 1.361730e+005
2.700000e+001, 1.286250e+005
2.750000e+001, 1.238110e+005
2.800000e+001, 1.182970e+005
2.850000e+001, 1.142510e+005
2.900000e+001, 1.120090e+005
2.950000e+001, 1.098090e+005
3.000000e+001, 1.074160e+005
3.050000e+001, 1.059500e+005
3.100000e+001, 1.057100e+005
3.150000e+001, 1.061760e+005
3.200000e+001, 1.071670e+005
3.250000e+001, 1.088810e+005
3.300000e+001, 1.085240e+005
3.350000e+001, 1.065460e+005
3.400000e+001, 1.076330e+005
3.450000e+001, 1.076780e+005
3.500000e+001, 1.042750e+005
3.550000e+001, 1.024570e+005
3.600000e+001, 1.001860e+005
3.650000e+001, 9.729700e+004
3.700000e+001, 9.546500e+004
3.750000e+001, 9.168000e+004
3.800000e+001, 8.625700e+004
3.850000e+001, 8.242700e+004
3.900000e+001, 7.963900e+004
3.950000e+001, 7.666100e+004
4.000000e+001, 7.377900e+004
4.050000e+001, 7.116300e+004
4.100000e+001, 6.938500e+004
4.150000e+001, 6.648000e+004
4.200000e+001, 6.445600e+004
4.250000e+001, 6.300000e+004
4.300000e+001, 6.063200e+004
4.350000e+001, 5.967600e+004
4.400000e+001, 5.745100e+004
4.450000e+001, 5.637700e+004
4.500000e+001, 5.469600e+004
4.550000e+001, 5.219300e+004
4.600000e+001, 5.244200e+004
4.650000e+001, 5.111600e+004
4.700000e+001, 4.985300e+004
4.750000e+001, 5.022900e+004
4.800000e+001, 4.738900e+004
4.850000e+001, 4.501300e+004
4.900000e+001, 4.416400e+004
4.950000e+001, 4.346400e+004
5.000000e+001, 4.349500e+004
5.050000e+001, 4.233400e+004
5.100000e+001, 4.027700e+004
5.150000e+001, 3.929600e+004
5.200000e+001, 3.995200e+004
5.250000e+001, 4.016900e+004
5.300000e+001, 3.856600e+004
5.350000e+001, 3.785100e+004
5.400000e+001, 3.864100e+004
5.450000e+001, 3.774900e+004
5.500000e+001, 3.658100e+004
5.550000e+001, 3.710600e+004
5.600000e+001, 3.839800e+004
5.650000e+001, 3.942900e+004
5.700000e+001, 3.829000e+004
5.750000e+001, 3.755500e+004
5.800000e+001, 3.627500e+004
5.850000e+001, 3.282400e+004
5.900000e+001, 3.297700e+004
5.950000e+001, 3.297800e+004
6.000000e+001, 3.257700e+004
6.050000e+001, 3.262800e+004
6.100000e+001, 3.108600e+004
6.150000e+001, 2.964900e+004
6.200000e+001, 2.923400e+004
6.250000e+001, 2.872300e+004
6.300000e+001, 2.813500e+004
6.350000e+001, 2.790200e+004
6.400000e+001, 2.822800e+004
6.450000e+001, 2.680400e+004
6.500000e+001, 2.493100e+004
6.550000e+001, 2.511200e+004
6.600000e+001, 2.540600e+004
6.650000e+001, 2.435600e+004
6.700000e+001, 2.297600e+004
6.750000e+001, 2.302100e+004
6.800000e+001, 2.376800e+004
6.850000e+001, 2.313300e+004
6.900000e+001, 2.156300e+004
6.950000e+001, 2.153100e+004
7.000000e+001, 2.156200e+004
7.050000e+001, 2.253400e+004
7.100000e+001, 2.231700e+004
7.150000e+001, 1.986100e+004
7.200000e+001, 1.944600e+004
7.250000e+001, 2.076300e+004
7.300000e+001, 2.044400e+004
7.350000e+001, 1.972700e+004
7.400000e+001, 1.868700e+004
7.450000e+001, 1.851200e+004
7.500000e+001, 1.880300e+004
7.550000e+001, 1.869100e+004
7.600000e+001, 1.952500e+004
7.650000e+001, 1.817100e+004
7.700000e+001, 1.748200e+004
7.750000e+001, 1.686400e+004
7.800000e+001, 1.633100e+004
7.850000e+001, 1.674900e+004
7.900000e+001, 1.765800e+004
7.950000e+001, 1.731500e+004
8.000000e+001, 1.504400e+004
8.050000e+001, 1.463900e+004
8.100000e+001, 1.485500e+004
8.150000e+001, 1.481400e+004
8.200000e+001, 1.485400e+004
8.250000e+001, 1.465500e+004
8.300000e+001, 1.429300e+004
8.350000e+001, 1.419800e+004
8.400000e+001, 1.404200e+004
8.450000e+001, 1.320000e+004
8.500000e+001, 1.278000e+004
8.550000e+001, 1.309000e+004
8.600000e+001, 1.240900e+004
8.650000e+001, 1.211900e+004
8.700000e+001, 1.198100e+004
8.750000e+001, 1.130300e+004
8.800000e+001, 1.218800e+004
8.850000e+001, 1.186800e+004
8.900000e+001, 1.057000e+004
8.950000e+001, 1.124000e+004
9.000000e+001, 1.021800e+004
9.050000e+001, 1.090100e+004
9.100000e+001, 1.277800e+004
9.150000e+001, 1.243400e+004
9.200000e+001, 1.119900e+004
9.250000e+001, 1.052600e+004
9.300000e+001, 1.083900e+004
9.350000e+001, 1.021100e+004
9.400000e+001, 1.095700e+004
9.450000e+001, 1.129900e+004
9.500000e+001, 9.620000e+003
9.550000e+001, 9.697000e+003
9.600000e+001, 9.322000e+003
9.650000e+001, 8.290000e+003
9.700000e+001, 8.890000e+003
9.750000e+001, 8.287000e+003
9.800000e+001, 7.628000e+003
9.850000e+001, 7.730000e+003
9.900000e+001, 8.138000e+003
9.950000e+001, 7.984000e+003
1.000000e+002, 7.314000e+003
1.005000e+002, 7.917000e+003
1.010000e+002, 8.195000e+003
1.015000e+002, 7.673000e+003
1.020000e+002, 8.636000e+003
1.025000e+002, 8.911000e+003
1.030000e+002, 8.404000e+003
1.035000e+002, 7.680000e+003
1.040000e+002, 8.860000e+003
1.045000e+002, 9.912000e+003
1.050000e+002, 8.146000e+003
1.055000e+002, 6.741000e+003
1.060000e+002, 7.212000e+003
1.065000e+002, 7.576000e+003
1.070000e+002, 8.613000e+003
1.075000e+002, 8.672000e+003
1.080000e+002, 8.411000e+003
1.085000e+002, 8.654000e+003
1.090000e+002, 8.261000e+003
1.095000e+002, 8.653000e+003
1.100000e+002, 8.235000e+003
1.105000e+002, 7.754000e+003
1.110000e+002, 7.466000e+003
1.115000e+002, 7.617000e+003
1.120000e+002, 8.479000e+003
1.125000e+002, 7.726000e+003
1.130000e+002, 6.618000e+003
1.135000e+002, 7.137000e+003
1.140000e+002, 8.002000e+003
1.145000e+002, 7.772000e+003
1.150000e+002, 5.837000e+003
1.155000e+002, 6.324000e+003
1.160000e+002, 6.713000e+003
1.165000e+002, 6.342000e+003
1.170000e+002, 6.177000e+003
1.175000e+002, 6.324000e+003
1.180000e+002, 6.585000e+003
1.185000e+002, 6.643000e+003
1.190000e+002, 6.461000e+003
1.195000e+002, 6.142000e+003
1.200000e+002, 5.594000e+003
1.205000e+002, 4.898000e+003
1.210000e+002, 6.092000e+003
1.215000e+002, 5.520000e+003
1.220000e+002, 4.188000e+003
1.225000e+002, 6.107000e+003
1.230000e+002, 5.995000e+003
1.235000e+002, 5.735000e+003
1.240000e+002, 6.389000e+003
1.245000e+002, 6.476000e+003
1.250000e+002, 6.033000e+003
1.255000e+002, 5.962000e+003
1.260000e+002, 7.376000e+003
1.265000e+002, 7.146000e+003
1.270000e+002, 5.554000e+003
1.275000e+002, 6.002000e+003
1.280000e+002, 6.709000e+003
1.285000e+002, 6.590000e+003
1.290000e+002, 6.752000e+003
1.295000e+002, 6.468000e+003
1.300000e+002, 5.296000e+003
1.305000e+002, 4.753000e+003
1.310000e+002, 5.643000e+003
1.315000e+002, 4.987000e+003
1.320000e+002, 5.323000e+003
1.325000e+002, 5.251000e+003
1.330000e+002, 4.953000e+003
1.335000e+002, 5.562000e+003
1.340000e+002, 4.786000e+003
1.345000e+002, 3.941000e+003
1.350000e+002, 4.213000e+003
1.355000e+002, 5.669000e+003
1.360000e+002, 6.094000e+003
1.365000e+002, 5.495000e+003
1.370000e+002, 4.387000e+003
1.375000e+002, 5.020000e+003
1.380000e+002, 4.583000e+003
1.385000e+002, 3.841000e+003
1.390000e+002, 4.473000e+003
1.395000e+002, 3.330000e+003
1.400000e+002, 3.695000e+003
1.405000e+002, 4.250000e+003
1.410000e+002, 3.912000e+003
1.415000e+002, 4.373000e+003
1.420000e+002, 4.204000e+003
1.425000e+002, 3.843000e+003
1.430000e+002, 4.486000e+003
1.435000e+002, 4.392000e+003
1.440000e+002, 3.350000e+003
1.445000e+002, 4.275000e+003
1.450000e+002, 4.726000e+003
1.455000e+002, 4.110000e+003
1.460000e+002, 4.156000e+003
1.465000e+002, 3.560000e+003
1.470000e+002, 3.606000e+003
1.475000e+002, 4.340000e+003
1.480000e+002, 4.166000e+003
1.485000e+002, 3.301000e+003
1.490000e+002, 4.024000e+003
1.495000e+002, 4.176000e+003
1.500000e+002, 2.865000e+003
1.505000e+002, 3.809000e+003
1.510000e+002, 3.682000e+003
1.515000e+002, 3.844000e+003
1.520000e+002, 3.800000e+003
1.525000e+002, 2.962000e+003
1.530000e+002, 2.683000e+003
1.535000e+002, 3.459000e+003
1.540000e+002, 3.659000e+003
1.545000e+002, 3.278000e+003
1.550000e+002, 2.907000e+003
1.555000e+002, 3.430000e+003
1.560000e+002, 2.578000e+003
1.565000e+002, 2.830000e+003
1.570000e+002, 3.496000e+003
1.575000e+002, 3.280000e+003
1.580000e+002, 3.474000e+003
1.585000e+002, 4.082000e+003
1.590000e+002, 3.367000e+003
1.595000e+002, 3.573000e+003
1.600000e+002, 3.267000e+003
1.605000e+002, 4.220000e+003
1.610000e+002, 5.064000e+003
1.615000e+002, 3.766000e+003
1.620000e+002, 3.102000e+003
1.625000e+002, 2.771000e+003
1.630000e+002, 1.368000e+003
1.635000e+002, 1.869000e+003
1.640000e+002, 2.788000e+003
1.645000e+002, 3.889000e+003
1.650000e+002, 2.721000e+003
1.655000e+002, 1.957000e+003
1.660000e+002, 4.146000e+003
1.665000e+002, 2.765000e+003
1.670000e+002, 2.671000e+003
1.675000e+002, 3.943000e+003
1.680000e+002, 3.350000e+003
1.685000e+002, 3.028000e+003
1.690000e+002, 2.973000e+003
1.695000e+002, 3.503000e+003
1.700000e+002, 3.165000e+003
1.705000e+002, 3.429000e+003
1.710000e+002, 3.633000e+003
1.715000e+002, 4.051000e+003
1.720000e+002, 2.877000e+003
1.725000e+002, 2.449000e+003
1.730000e+002, 2.330000e+003
1.735000e+002, 1.765000e+003
1.740000e+002, 2.750000e+003
1.745000e+002, 2.996000e+003
1.750000e+002, 2.716000e+003
1.755000e+002, 2.375000e+003
1.760000e+002, 2.611000e+003
1.765000e+002, 3.618000e+003
1.770000e+002, 2.824000e+003
1.775000e+002, 2.401000e+003
1.780000e+002, 1.288000e+003
1.785000e+002, 6.640000e+002
1.790000e+002, 2.561000e+003
1.795000e+002, 3.253000e+003
1.800000e+002, 1.619000e+003
1.805000e+002, 2.092000e+003
1.810000e+002, 2.322000e+003
1.815000e+002, 9.060000e+002
1.820000e+002, 2.513000e+003
1.825000e+002, 3.418000e+003
1.830000e+002, 2.494000e+003
1.835000e+002, 2.195000e+003
1.840000e+002, 2.549000e+003
1.845000e+002, 2.341000e+003
1.850000e+002, 1.853000e+003
1.855000e+002, 1.381000e+003
1.860000e+002, 1.655000e+003
1.865000e+002, 1.784000e+003
1.870000e+002, 2.621000e+003
1.875000e+002, 2.824000e+003
1.880000e+002, 2.601000e+003
1.885000e+002, 1.284000e+003
1.890000e+002, 1.541000e+003
1.895000e+002, 2.478000e+003
1.900000e+002, 2.038000e+003
1.905000e+002, 2.218000e+003
1.910000e+002, 2.865000e+003
1.915000e+002, 2.165000e+003
1.920000e+002, 1.666000e+003
1.925000e+002, 3.398000e+003
1.930000e+002, 3.176000e+003
1.935000e+002, 1.773000e+003
1.940000e+002, 1.955000e+003
1.945000e+002, 1.448000e+003
1.950000e+002, 9.300000e+002
1.955000e+002, 4.160000e+002
1.960000e+002, 1.543000e+003
1.965000e+002, 2.949000e+003
1.970000e+002, 2.225000e+003
1.975000e+002, 2.629000e+003
1.980000e+002, 1.769000e+003
1.985000e+002, 1.358000e+003
1.990000e+002, 2.374000e+003
1.995000e+002, 2.482000e+003
2.000000e+002, 2.212000e+003
2.005000e+002, 3.105000e+003
2.010000e+002, 3.037000e+003
2.015000e+002, 1.882000e+003
2.020000e+002, 1.372000e+003
2.025000e+002, 1.566000e+003
2.030000e+002, 1.898000e+003
2.035000e+002, 2.382000e+003
2.040000e+002, 2.798000e+003
2.045000e+002, 2.826000e+003
2.050000e+002, 2.591000e+003
2.055000e+002, 1.223000e+003
2.060000e+002, 7.680000e+002
2.065000e+002, 5.280000e+002
2.070000e+002, 1.616000e+003
2.075000e+002, 3.032000e+003
2.080000e+002, 2.516000e+003
2.085000e+002, 7.740000e+002
2.090000e+002, 7.510000e+002
2.095000e+002, 1.093000e+003
2.100000e+002, 8.840000e+002
2.105000e+002, 9.200000e+001
2.110000e+002, 8.460000e+002
2.115000e+002, 2.038000e+003
2.120000e+002, 1.614000e+003
2.125000e+002, 2.206000e+003
2.130000e+002, 1.988000e+003
2.135000e+002, 1.373000e+003
2.140000e+002, 1.806000e+003
2.145000e+002, 2.189000e+003
2.150000e+002, 2.290000e+002
2.155000e+002, 3.820000e+002
2.160000e+002, 1.543000e+003
2.165000e+002, 7.020000e+002
2.170000e+002, 1.355000e+003
2.175000e+002, 2.472000e+003
2.180000e+002, 1.868000e+003
2.185000e+002, 1.298000e+003
2.190000e+002, 2.142000e+003
2.195000e+002, 1.953000e+003
2.200000e+002, 1.606000e+003
2.205000e+002, 2.422000e+003
2.210000e+002, 2.158000e+003
2.215000e+002, 1.485000e+003
2.220000e+002, 1.811000e+003
2.225000e+002, 2.332000e+003
2.230000e+002, 6.360000e+002
2.235000e+002, 4.440000e+002
2.240000e+002, 7.950000e+002
2.245000e+002, 4.520000e+002
2.250000e+002, -3.440000e+002
2.255000e+002, 2.250000e+002
2.260000e+002, 1.289000e+003
2.265000e+002, 7.540000e+002
2.270000e+002, -1.700000e+001
2.275000e+002, 1.094000e+003
2.280000e+002, 2.596000e+003
2.285000e+002, 1.212000e+003
2.290000e+002, 1.637000e+003
2.295000e+002, 2.648000e+003
2.300000e+002, 1.298000e+003
2.305000e+002, -2.760000e+002
2.310000e+002, 5.700000e+002
2.315000e+002, 6.550000e+002
2.320000e+002, 7.980000e+002
2.325000e+002, 1.726000e+003
2.330000e+002, 1.404000e+003
2.335000e+002, 1.120000e+002
2.340000e+002, 2.270000e+002
2.345000e+002, 1.718000e+003
2.350000e+002, 1.574000e+003
2.355000e+002, 1.946000e+003
2.360000e+002, 8.170000e+002
2.365000e+002, 0.000000e+000
2.370000e+002, 1.276000e+003
2.375000e+002, 1.887000e+003
2.380000e+002, 1.136000e+003
2.385000e+002, 1.047000e+003
2.390000e+002, 1.238000e+003
2.395000e+002, 1.422000e+003
2.400000e+002, 1.341000e+003
2.405000e+002, -4.310000e+002
2.410000e+002, -5.510000e+002
2.415000e+002, 9.730000e+002
2.420000e+002, 1.698000e+003
2.425000e+002, 1.741000e+003
2.430000e+002, 1.783000e+003
2.435000e+002, 5.770000e+002
2.440000e+002, 7.210000e+002
2.445000e+002, 6.140000e+002
2.450000e+002, 8.230000e+002
2.455000e+002, 2.337000e+003
2.460000e+002, 2.616000e+003
2.465000e+002, 1.552000e+003
2.470000e+002, 6.600000e+002
2.475000e+002, 5.980000e+002
2.480000e+002, 5.910000e+002
2.485000e+002, -7.700000e+001
2.490000e+002, 7.150000e+002
2.495000e+002, 5.850000e+002
2.500000e+002, 6.790000e+002
2.505000e+002, 1.663000e+003
2.510000e+002, 1.872000e+003
2.515000e+002, 4.760000e+002
2.520000e+002, 6.630000e+002
2.525000e+002, 1.380000e+003
2.530000e+002, 1.990000e+002
2.535000e+002, 1.600000e+001
2.540000e+002, 1.528000e+003
2.545000e+002, 1.649000e+003
2.550000e+002, 1.319000e+003
2.555000e+002, 1.749000e+003
2.560000e+002, 1.012000e+003
2.565000e+002, 1.170000e+002
2.570000e+002, 3.780000e+002
2.575000e+002, 1.596000e+003
2.580000e+002, 9.770000e+002
2.585000e+002, 6.850000e+002
2.590000e+002, 8.440000e+002
2.595000e+002, 1.149000e+003
2.600000e+002, 8.720000e+002
2.605000e+002, 1.112000e+003
2.610000e+002, 1.812000e+003
2.615000e+002, 1.298000e+003
2.620000e+002, 1.515000e+003
2.625000e+002, 1.286000e+003
2.630000e+002, 2.032000e+003
2.635000e+002, 1.013000e+003
2.640000e+002, 4.880000e+002
2.645000e+002, 1.142000e+003
2.650000e+002, 1.120000e+003
2.655000e+002, 1.651000e+003
2.660000e+002, 1.617000e+003
2.665000e+002, 6.300000e+001
2.670000e+002, -7.440000e+002
2.675000e+002, 2.640000e+002
2.680000e+002, 3.900000e+002
2.685000e+002, 5.170000e+002
2.690000e+002, 1.313000e+003
2.695000e+002, 1.388000e+003
2.700000e+002, 3.810000e+002
2.705000e+002, 9.990000e+002
2.710000e+002, 1.133000e+003
2.715000e+002, 9.040000e+002
2.720000e+002, 1.496000e+003
2.725000e+002, 1.337000e+003
2.730000e+002, 3.230000e+002
2.735000e+002, 1.223000e+003
2.740000e+002, 7.070000e+002
2.745000e+002, 1.820000e+002
2.750000e+002, 6.950000e+002
2.755000e+002, 1.970000e+002
2.760000e+002, 1.636000e+003
2.765000e+002, 1.281000e+003
2.770000e+002, 1.692000e+003
2.775000e+002, 1.862000e+003
2.780000e+002, -1.710000e+002
2.785000e+002, -5.590000e+002
2.790000e+002, -6.170000e+002
2.795000e+002, -5.620000e+002
2.800000e+002, 1.110000e+002
2.805000e+002, 1.147000e+003
2.810000e+002, 1.063000e+003
2.815000e+002, -3.630000e+002
2.820000e+002, 6.240000e+002
2.825000e+002, 1.645000e+003
2.830000e+002, 9.200000e+002
2.835000e+002, 1.224000e+003
2.840000e+002, 1.711000e+003
2.845000e+002, 1.189000e+003
2.850000e+002, 1.800000e+002
2.855000e+002, 1.070000e+002
2.860000e+002, 3.350000e+002
2.865000e+002, 5.190000e+002
2.870000e+002, 3.870000e+002
2.875000e+002, 8.250000e+002
2.880000e+002, 1.420000e+003
2.885000e+002, 1.566000e+003
2.890000e+002, 2.179000e+003
2.895000e+002, 1.833000e+003
2.900000e+002, 1.420000e+002
2.905000e+002, -5.000000e+000
2.910000e+002, 9.990000e+002
2.915000e+002, 1.551000e+003
2.920000e+002, 1.744000e+003
2.925000e+002, 1.340000e+003
2.930000e+002, 6.790000e+002
2.935000e+002, 2.410000e+002
2.940000e+002, 1.216000e+003
2.945000e+002, 1.092000e+003
2.950000e+002, 5.180000e+002
2.955000e+002, 1.315000e+003
2.960000e+002, 1.323000e+003
2.965000e+002, 8.630000e+002
2.970000e+002, 4.730000e+002
2.975000e+002, 7.230000e+002
2.980000e+002, 5.880000e+002
2.985000e+002, 4.880000e+002
2.990000e+002, 1.125000e+003
2.995000e+002, 5.270000e+002
3.000000e+002, -5.320000e+002
3.005000e+002, 1.560000e+002
3.010000e+002, 8.200000e+002
3.015000e+002, 8.290000e+002
3.020000e+002, 9.090000e+002
3.025000e+002, 2.300000e+001
3.030000e+002, -4.560000e+002
3.035000e+002, -8.100000e+001
3.040000e+002, 5.540000e+002
3.045000e+002, 9.350000e+002
3.050000e+002, -1.390000e+002
3.055000e+002, 1.910000e+002
3.060000e+002, 1.398000e+003
3.065000e+002, 5.820000e+002
3.070000e+002, 4.160000e+002
3.075000e+002, 1.390000e+003
3.080000e+002, 1.856000e+003
3.085000e+002, 8.710000e+002
3.090000e+002, 6.840000e+002
3.095000e+002, 3.150000e+002
3.100000e+002, -4.050000e+002
3.105000e+002, 5.670000e+002
3.110000e+002, 3.340000e+002
3.115000e+002, 1.880000e+002
3.120000e+002, -2.000000e+001
3.125000e+002, 8.150000e+002
3.130000e+002, 8.860000e+002
3.135000e+002, 2.930000e+002
3.140000e+002, -2.330000e+002
3.145000e+002, -3.010000e+002
3.150000e+002, 6.220000e+002
3.155000e+002, 2.800000e+001
3.160000e+002, -7.300000e+001
3.165000e+002, 3.840000e+002
3.170000e+002, 1.258000e+003
3.175000e+002, 1.071000e+003
3.180000e+002, 4.930000e+002
3.185000e+002, 3.280000e+002
3.190000e+002, 4.960000e+002
3.195000e+002, 3.740000e+002
3.200000e+002, 1.000000e+002
3.205000e+002, 1.503000e+003
3.210000e+002, 1.730000e+002
3.215000e+002, -7.590000e+002
3.220000e+002, 4.790000e+002
3.225000e+002, 1.695000e+003
3.230000e+002, 1.987000e+003
3.235000e+002, 6.650000e+002
3.240000e+002, 3.880000e+002
3.245000e+002, 9.750000e+002
3.250000e+002, 8.190000e+002
3.255000e+002, 1.439000e+003
3.260000e+002, 2.778000e+003
3.265000e+002, 2.181000e+003
3.270000e+002, 1.834000e+003
3.275000e+002, 2.247000e+003
3.280000e+002, 1.191000e+003
3.285000e+002, 9.980000e+002
3.290000e+002, 1.057000e+003
3.295000e+002, -7.590000e+002
3.300000e+002, 8.000000e+001
3.305000e+002, 8.230000e+002
3.310000e+002, 1.067000e+003
3.315000e+002, 5.940000e+002
3.320000e+002, -5.410000e+002
3.325000e+002, -2.300000e+001
3.330000e+002, 3.300000e+001
3.335000e+002, 1.385000e+003
3.340000e+002, 2.603000e+003
3.345000e+002, 2.104000e+003
3.350000e+002, 7.670000e+002
3.355000e+002, 2.980000e+002
3.360000e+002, 3.650000e+002
3.365000e+002, 1.092000e+003
3.370000e+002, 1.429000e+003
3.375000e+002, 1.435000e+003
3.380000e+002, 5.740000e+002
3.385000e+002, -2.950000e+002
3.390000e+002, 8.130000e+002
3.395000e+002, 1.706000e+003
3.400000e+002, 1.039000e+003
3.405000e+002, 2.200000e+002
3.410000e+002, 1.230000e+002
3.415000e+002, 4.240000e+002
3.420000e+002, -1.050000e+002
3.425000e+002, 1.100000e+002
3.430000e+002, 7.570000e+002
3.435000e+002, -3.180000e+002
3.440000e+002, 1.790000e+002
3.445000e+002, 7.010000e+002
3.450000e+002, -2.390000e+002
3.455000e+002, 7.480000e+002
3.460000e+002, 1.697000e+003
3.465000e+002, 1.528000e+003
3.470000e+002, 1.086000e+003
3.475000e+002, 1.200000e+003
3.480000e+002, 6.590000e+002
3.485000e+002, 6.760000e+002
3.490000e+002, 1.269000e+003
3.495000e+002, 8.460000e+002
3.500000e+002, -3.470000e+002
3.505000e+002, 1.060000e+002
3.510000e+002, 4.930000e+002
3.515000e+002, 8.670000e+002
3.520000e+002, 1.449000e+003
3.525000e+002, 1.069000e+003
3.530000e+002, 1.341000e+003
3.535000e+002, 9.690000e+002
3.540000e+002, 1.305000e+003
3.545000e+002, 9.790000e+002
3.550000e+002, 7.210000e+002
3.555000e+002, 3.640000e+002
3.560000e+002, 2.380000e+002
3.565000e+002, 8.520000e+002
3.570000e+002, 1.141000e+003
3.575000e+002, 1.432000e+003
3.580000e+002, 1.070000e+003
3.585000e+002, 1.515000e+003
3.590000e+002, 9.270000e+002
3.595000e+002, 1.075000e+003
3.600000e+002, 1.866000e+003
3.605000e+002, 1.456000e+003
3.610000e+002, 2.990000e+002
3.615000e+002, -1.400000e+002
3.620000e+002, 8.530000e+002
3.625000e+002, 1.109000e+003
3.630000e+002, -2.240000e+002
3.635000e+002, -4.920000e+002
3.640000e+002, -5.560000e+002
3.645000e+002, -1.180000e+002
3.650000e+002, 8.330000e+002
3.655000e+002, 1.001000e+003
3.660000e+002, 1.124000e+003
3.665000e+002, 2.990000e+002
3.670000e+002, -5.100000e+002
3.675000e+002, -4.600000e+001
3.680000e+002, 1.258000e+003
3.685000e+002, 1.082000e+003
3.690000e+002, 1.412000e+003
3.695000e+002, 1.372000e+003
3.700000e+002, 1.290000e+002
3.705000e+002, 8.500000e+002
3.710000e+002, 5.810000e+002
3.715000e+002, 5.200000e+001
3.720000e+002, 7.280000e+002
3.725000e+002, 1.583000e+003
3.730000e+002, 1.579000e+003
3.735000e+002, 4.470000e+002
3.740000e+002, -2.480000e+002
3.745000e+002, -7.940000e+002
3.750000e+002, -9.490000e+002
3.755000e+002, 1.486000e+003
3.760000e+002, 2.040000e+003
3.765000e+002, 6.090000e+002
3.770000e+002, 8.650000e+002
3.775000e+002, 9.780000e+002
3.780000e+002, 8.000000e+000
3.785000e+002, -3.610000e+002
3.790000e+002, -8.800000e+001
3.795000e+002, -3.130000e+002
3.800000e+002, -7.500000e+001
3.805000e+002, -3.500000e+002
3.810000e+002, -2.880000e+002
3.815000e+002, 1.260000e+002
3.820000e+002, 1.861000e+003
3.825000e+002, 2.036000e+003
3.830000e+002, 4.680000e+002
3.835000e+002, 5.400000e+001
3.840000e+002, 9.100000e+001
3.845000e+002, 7.300000e+002
3.850000e+002, -3.620000e+002
3.855000e+002, -6.880000e+002
3.860000e+002, 8.820000e+002
3.865000e+002, 3.280000e+002
3.870000e+002, -3.660000e+002
3.875000e+002, -2.240000e+002
3.880000e+002, 6.150000e+002
3.885000e+002, 6.760000e+002
3.890000e+002, 4.020000e+002
3.895000e+002, 5.070000e+002
3.900000e+002, 3.540000e+002
3.905000e+002, 4.440000e+002
3.910000e+002, 5.420000e+002
3.915000e+002, 1.206000e+003
3.920000e+002, 2.000000e+000
3.925000e+002, -6.320000e+002
3.930000e+002, -1.730000e+002
3.935000e+002, -2.880000e+002
3.940000e+002, -3.550000e+002
3.945000e+002, 1.590000e+002
3.950000e+002, 3.270000e+002
3.955000e+002, -4.190000e+002
3.960000e+002, -1.780000e+002
3.965000e+002, 7.820000e+002
3.970000e+002, 9.660000e+002
3.975000e+002, 1.095000e+003
3.980000e+002, 1.370000e+002
3.985000e+002, 1.760000e+002
3.990000e+002, 4.750000e+002
3.995000e+002, 4.390000e+002
4.000000e+002, 3.330000e+002
4.005000e+002, 3.280000e+002
4.010000e+002, -5.720000e+002
4.015000e+002, -4.820000e+002
4.020000e+002, -4.640000e+002
4.025000e+002, 1.430000e+002
4.030000e+002, 4.490000e+002
4.035000e+002, 5.580000e+002
4.040000e+002, 1.476000e+003
4.045000e+002, 2.395000e+003
4.050000e+002, 1.054000e+003
4.055000e+002, 1.490000e+002
4.060000e+002, 4.600000e+002
4.065000e+002, -5.350000e+002
4.070000e+002, 2.690000e+002
4.075000e+002, 5.870000e+002
4.080000e+002, -3.060000e+002
4.085000e+002, -2.530000e+002
4.090000e+002, 7.970000e+002
4.095000e+002, 1.380000e+003
4.100000e+002, -2.900000e+002
4.105000e+002, 6.430000e+002
4.110000e+002, 1.768000e+003
4.115000e+002, 1.220000e+002
4.120000e+002, 2.780000e+002
4.125000e+002, 3.170000e+002
4.130000e+002, 9.100000e+001
4.135000e+002, 4.240000e+002
4.140000e+002, 1.789000e+003
4.145000e+002, 1.064000e+003
4.150000e+002, 2.030000e+002
4.155000e+002, 1.244000e+003
4.160000e+002, 1.416000e+003
4.165000e+002, 1.164000e+003
4.170000e+002, 2.740000e+002
4.175000e+002, -9.800000e+001
4.180000e+002, -4.800000e+001
4.185000e+002, 4.100000e+001
4.190000e+002, -8.000000e+000
4.195000e+002, 1.104000e+003
4.200000e+002, 9.250000e+002
4.205000e+002, 9.520000e+002
4.210000e+002, 9.980000e+002
4.215000e+002, 9.870000e+002
4.220000e+002, 9.290000e+002
4.225000e+002, 6.850000e+002
4.230000e+002, 1.372000e+003
4.235000e+002, 1.411000e+003
4.240000e+002, 1.318000e+003
4.245000e+002, 1.237000e+003
4.250000e+002, 4.500000e+001
4.255000e+002, 3.980000e+002
4.260000e+002, 9.330000e+002
4.265000e+002, -4.630000e+002
4.270000e+002, 5.240000e+002
4.275000e+002, 1.780000e+002
4.280000e+002, -1.770000e+002
4.285000e+002, -5.260000e+002
4.290000e+002, -1.860000e+002
4.295000e+002, 3.290000e+002
4.300000e+002, 2.870000e+002
4.305000e+002, -4.800000e+002
4.310000e+002, 6.610000e+002
4.315000e+002, 1.310000e+003
4.320000e+002, 1.166000e+003
4.325000e+002, 1.113000e+003
4.330000e+002, -7.200000e+001
4.335000e+002, 1.140000e+002
4.340000e+002, 1.164000e+003
4.345000e+002, 7.400000e+001
4.350000e+002, -8.540000e+002
4.355000e+002, 1.340000e+002
4.360000e+002, 9.890000e+002
4.365000e+002, 8.470000e+002
4.370000e+002, 5.300000e+002
4.375000e+002, 1.150000e+002
4.380000e+002, 2.470000e+002
4.385000e+002, 4.490000e+002
4.390000e+002, 1.630000e+002
4.395000e+002, -1.200000e+002
4.400000e+002, 3.460000e+002
4.405000e+002, 1.230000e+003
4.410000e+002, 6.190000e+002
4.415000e+002, 5.400000e+002
4.420000e+002, 1.264000e+003
4.425000e+002, 1.276000e+003
4.430000e+002, 3.570000e+002
4.435000e+002, 1.710000e+002
4.440000e+002, 8.060000e+002
4.445000e+002, 6.430000e+002
4.450000e+002, -8.470000e+002
4.455000e+002, -2.200000e+001
4.460000e+002, 1.288000e+003
4.465000e+002, 1.209000e+003
4.470000e+002, 1.058000e+003
4.475000e+002, 1.115000e+003
4.480000e+002, 4.950000e+002
4.485000e+002, -2.550000e+002
4.490000e+002, 1.210000e+002
4.495000e+002, -7.610000e+002
4.500000e+002, -8.790000e+002
4.505000e+002, 3.500000e+002
4.510000e+002, 2.910000e+002
4.515000e+002, -5.560000e+002
4.520000e+002, -5.340000e+002
4.525000e+002, 5.120000e+002
4.530000e+002, 8.470000e+002
#ENDOFDATA   : End Of Data and File