#FORMAT	     : EMSA/MAS Spectral Data File
#VERSION     : 1.0
#TITLE       : B_deconv
#DATE        : 
#TIME        : 
#OWNER       : 
#NPOINTS     : 1024
#NCOLUMNS    : 1
#XUNITS      : eV
#YUNITS      : e-
#DATATYPE    : XY
#XPERCHAN    : 4.999999e-001
#OFFSET      : 1.135000e+002
#SPECTRUM    : Spectral Data Starts Here
1.135000e+002, 0.000000e+000
1.140000e+002, 0.000000e+000
1.145000e+002, 0.000000e+000
1.150000e+002, 0.000000e+000
1.155000e+002, 0.000000e+000
1.160000e+002, 0.000000e+000
1.165000e+002, 0.000000e+000
1.170000e+002, 0.000000e+000
1.175000e+002, 0.000000e+000
1.180000e+002, 0.000000e+000
1.185000e+002, 0.000000e+000
1.190000e+002, 0.000000e+000
1.195000e+002, 0.000000e+000
1.200000e+002, 0.000000e+000
1.205000e+002, 0.000000e+000
1.210000e+002, 0.000000e+000
1.215000e+002, 0.000000e+000
1.220000e+002, 0.000000e+000
1.225000e+002, 0.000000e+000
1.230000e+002, 0.000000e+000
1.235000e+002, 0.000000e+000
1.240000e+002, 0.000000e+000
1.245000e+002, 0.000000e+000
1.250000e+002, 0.000000e+000
1.255000e+002, 0.000000e+000
1.260000e+002, 0.000000e+000
1.265000e+002, 0.000000e+000
1.270000e+002, 0.000000e+000
1.275000e+002, 0.000000e+000
1.280000e+002, 0.000000e+000
1.285000e+002, 0.000000e+000
1.290000e+002, 0.000000e+000
1.295000e+002, 0.000000e+000
1.300000e+002, 0.000000e+000
1.305000e+002, 0.000000e+000
1.310000e+002, 0.000000e+000
1.315000e+002, 0.000000e+000
1.320000e+002, 0.000000e+000
1.325000e+002, 0.000000e+000
1.330000e+002, 0.000000e+000
1.335000e+002, 0.000000e+000
1.340000e+002, 0.000000e+000
1.345000e+002, 0.000000e+000
1.350000e+002, 0.000000e+000
1.355000e+002, 0.000000e+000
1.360000e+002, 0.000000e+000
1.365000e+002, 0.000000e+000
1.370000e+002, 0.000000e+000
1.375000e+002, 0.000000e+000
1.380000e+002, 0.000000e+000
1.385000e+002, 0.000000e+000
1.390000e+002, 0.000000e+000
1.395000e+002, 0.000000e+000
1.400000e+002, 0.000000e+000
1.405000e+002, 0.000000e+000
1.410000e+002, 0.000000e+000
1.415000e+002, 0.000000e+000
1.420000e+002, 0.000000e+000
1.425000e+002, 0.000000e+000
1.430000e+002, 0.000000e+000
1.435000e+002, 0.000000e+000
1.440000e+002, 0.000000e+000
1.445000e+002, 0.000000e+000
1.450000e+002, 0.000000e+000
1.455000e+002, 0.000000e+000
1.460000e+002, 0.000000e+000
1.465000e+002, 0.000000e+000
1.470000e+002, 0.000000e+000
1.475000e+002, 0.000000e+000
1.480000e+002, 0.000000e+000
1.485000e+002, 0.000000e+000
1.490000e+002, 0.000000e+000
1.495000e+002, 0.000000e+000
1.500000e+002, 0.000000e+000
1.505000e+002, 0.000000e+000
1.510000e+002, 0.000000e+000
1.515000e+002, 0.000000e+000
1.520000e+002, 0.000000e+000
1.525000e+002, 0.000000e+000
1.530000e+002, 0.000000e+000
1.535000e+002, 0.000000e+000
1.540000e+002, 0.000000e+000
1.545000e+002, 0.000000e+000
1.550000e+002, 0.000000e+000
1.555000e+002, 0.000000e+000
1.560000e+002, 0.000000e+000
1.565000e+002, 0.000000e+000
1.570000e+002, 0.000000e+000
1.575000e+002, 0.000000e+000
1.580000e+002, 0.000000e+000
1.585000e+002, 0.000000e+000
1.590000e+002, 0.000000e+000
1.595000e+002, 0.000000e+000
1.600000e+002, 0.000000e+000
1.605000e+002, 0.000000e+000
1.610000e+002, 0.000000e+000
1.615000e+002, 0.000000e+000
1.620000e+002, 0.000000e+000
1.625000e+002, 7.983532e+002
1.630000e+002, 8.217071e+001
1.635000e+002, 2.184656e+001
1.640000e+002, 8.978002e+002
1.645000e+002, 1.139063e+002
1.650000e+002, -1.296356e+003
1.655000e+002, -6.997135e+002
1.660000e+002, 5.836623e+001
1.665000e+002, 3.029715e+002
1.670000e+002, 1.425206e+002
1.675000e+002, 2.588268e+002
1.680000e+002, -1.634348e+002
1.685000e+002, -7.844504e+002
1.690000e+002, -2.226198e+003
1.695000e+002, -3.413821e+003
1.700000e+002, -1.923812e+003
1.705000e+002, -1.130576e+003
1.710000e+002, -3.149912e+003
1.715000e+002, -3.386464e+003
1.720000e+002, -1.618387e+003
1.725000e+002, -1.123717e+003
1.730000e+002, -6.151357e+002
1.735000e+002, -1.910877e+003
1.740000e+002, -1.885138e+003
1.745000e+002, -1.358095e+003
1.750000e+002, -1.216543e+003
1.755000e+002, 4.783443e+002
1.760000e+002, -7.253276e+002
1.765000e+002, -3.145789e+003
1.770000e+002, -3.287670e+003
1.775000e+002, -2.105173e+003
1.780000e+002, -1.320152e+003
1.785000e+002, -8.567188e+002
1.790000e+002, -1.145276e+003
1.795000e+002, -1.542859e+003
1.800000e+002, -6.058100e+002
1.805000e+002, -1.924356e+002
1.810000e+002, -1.988318e+003
1.815000e+002, -2.853923e+003
1.820000e+002, -2.603561e+003
1.825000e+002, -1.840491e+003
1.830000e+002, 6.509060e+002
1.835000e+002, 1.088953e+002
1.840000e+002, -1.437206e+003
1.845000e+002, -1.558251e+001
1.850000e+002, 3.784697e+002
1.855000e+002, 2.071320e+002
1.860000e+002, 4.991256e+002
1.865000e+002, 1.031560e+003
1.870000e+002, 1.059446e+003
1.875000e+002, 2.225192e+002
1.880000e+002, -1.741427e+002
1.885000e+002, -4.583285e+002
1.890000e+002, -5.855811e+001
1.895000e+002, -5.542893e+002
1.900000e+002, -1.243978e+003
1.905000e+002, -1.418349e+003
1.910000e+002, -2.035657e+002
1.915000e+002, 1.003792e+003
1.920000e+002, 1.788907e+003
1.925000e+002, 6.301570e+003
1.930000e+002, 2.862451e+004
1.935000e+002, 1.169756e+005
1.940000e+002, 3.122701e+005
1.945000e+002, 4.991457e+005
1.950000e+002, 4.772832e+005
1.955000e+002, 2.867094e+005
1.960000e+002, 1.279012e+005
1.965000e+002, 6.682998e+004
1.970000e+002, 5.761489e+004
1.975000e+002, 6.176664e+004
1.980000e+002, 6.931150e+004
1.985000e+002, 8.422145e+004
1.990000e+002, 1.238969e+005
1.995000e+002, 2.280469e+005
2.000000e+002, 4.345150e+005
2.005000e+002, 7.042423e+005
2.010000e+002, 9.269504e+005
2.015000e+002, 1.037046e+006
2.020000e+002, 1.045727e+006
2.025000e+002, 9.688351e+005
2.030000e+002, 8.216346e+005
2.035000e+002, 6.558858e+005
2.040000e+002, 5.259708e+005
2.045000e+002, 4.556867e+005
2.050000e+002, 4.393120e+005
2.055000e+002, 4.617893e+005
2.060000e+002, 5.077360e+005
2.065000e+002, 5.570737e+005
2.070000e+002, 5.840831e+005
2.075000e+002, 5.811435e+005
2.080000e+002, 5.603278e+005
2.085000e+002, 5.383230e+005
2.090000e+002, 5.237903e+005
2.095000e+002, 5.112425e+005
2.100000e+002, 4.996370e+005
2.105000e+002, 4.840933e+005
2.110000e+002, 4.636617e+005
2.115000e+002, 4.431109e+005
2.120000e+002, 4.246840e+005
2.125000e+002, 4.061662e+005
2.130000e+002, 3.842788e+005
2.135000e+002, 3.658929e+005
2.140000e+002, 3.538308e+005
2.145000e+002, 3.518091e+005
2.150000e+002, 3.611234e+005
2.155000e+002, 3.796243e+005
2.160000e+002, 4.136000e+005
2.165000e+002, 4.581947e+005
2.170000e+002, 5.015266e+005
2.175000e+002, 5.315269e+005
2.180000e+002, 5.427768e+005
2.185000e+002, 5.314675e+005
2.190000e+002, 4.998332e+005
2.195000e+002, 4.574969e+005
2.200000e+002, 4.063209e+005
2.205000e+002, 3.521672e+005
2.210000e+002, 3.075602e+005
2.215000e+002, 2.717898e+005
2.220000e+002, 2.433631e+005
2.225000e+002, 2.228202e+005
2.230000e+002, 2.078462e+005
2.235000e+002, 1.957891e+005
2.240000e+002, 1.873384e+005
2.245000e+002, 1.832529e+005
2.250000e+002, 1.810604e+005
2.255000e+002, 1.794954e+005
2.260000e+002, 1.816304e+005
2.265000e+002, 1.828047e+005
2.270000e+002, 1.804765e+005
2.275000e+002, 1.779000e+005
2.280000e+002, 1.768004e+005
2.285000e+002, 1.748684e+005
2.290000e+002, 1.735236e+005
2.295000e+002, 1.722400e+005
2.300000e+002, 1.725664e+005
2.305000e+002, 1.756585e+005
2.310000e+002, 1.767993e+005
2.315000e+002, 1.758790e+005
2.320000e+002, 1.771355e+005
2.325000e+002, 1.811351e+005
2.330000e+002, 1.843730e+005
2.335000e+002, 1.883195e+005
2.340000e+002, 1.907862e+005
2.345000e+002, 1.908978e+005
2.350000e+002, 1.926979e+005
2.355000e+002, 1.937430e+005
2.360000e+002, 1.913502e+005
2.365000e+002, 1.890474e+005
2.370000e+002, 1.852350e+005
2.375000e+002, 1.818146e+005
2.380000e+002, 1.804471e+005
2.385000e+002, 1.797328e+005
2.390000e+002, 1.771196e+005
2.395000e+002, 1.738894e+005
2.400000e+002, 1.727580e+005
2.405000e+002, 1.705841e+005
2.410000e+002, 1.670645e+005
2.415000e+002, 1.630484e+005
2.420000e+002, 1.610643e+005
2.425000e+002, 1.584673e+005
2.430000e+002, 1.562759e+005
2.435000e+002, 1.554842e+005
2.440000e+002, 1.526196e+005
2.445000e+002, 1.494903e+005
2.450000e+002, 1.475747e+005
2.455000e+002, 1.446782e+005
2.460000e+002, 1.424088e+005
2.465000e+002, 1.399433e+005
2.470000e+002, 1.369153e+005
2.475000e+002, 1.364389e+005
2.480000e+002, 1.366013e+005
2.485000e+002, 1.350276e+005
2.490000e+002, 1.347607e+005
2.495000e+002, 1.341095e+005
2.500000e+002, 1.334493e+005
2.505000e+002, 1.338902e+005
2.510000e+002, 1.335306e+005
2.515000e+002, 1.327700e+005
2.520000e+002, 1.321114e+005
2.525000e+002, 1.319495e+005
2.530000e+002, 1.331967e+005
2.535000e+002, 1.328504e+005
2.540000e+002, 1.324063e+005
2.545000e+002, 1.331824e+005
2.550000e+002, 1.330499e+005
2.555000e+002, 1.308019e+005
2.560000e+002, 1.291617e+005
2.565000e+002, 1.292207e+005
2.570000e+002, 1.284835e+005
2.575000e+002, 1.274245e+005
2.580000e+002, 1.271292e+005
2.585000e+002, 1.270202e+005
2.590000e+002, 1.253705e+005
2.595000e+002, 1.241081e+005
2.600000e+002, 1.232846e+005
2.605000e+002, 1.225748e+005
2.610000e+002, 1.224951e+005
2.615000e+002, 1.223576e+005
2.620000e+002, 1.219195e+005
2.625000e+002, 1.214681e+005
2.630000e+002, 1.227195e+005
2.635000e+002, 1.253271e+005
2.640000e+002, 1.251793e+005
2.645000e+002, 1.238973e+005
2.650000e+002, 1.239943e+005
2.655000e+002, 1.242368e+005
2.660000e+002, 1.243689e+005
2.665000e+002, 1.248913e+005
2.670000e+002, 1.258131e+005
2.675000e+002, 1.266167e+005
2.680000e+002, 1.284449e+005
2.685000e+002, 1.278667e+005
2.690000e+002, 1.261304e+005
2.695000e+002, 1.271178e+005
2.700000e+002, 1.278553e+005
2.705000e+002, 1.272049e+005
2.710000e+002, 1.262306e+005
2.715000e+002, 1.239696e+005
2.720000e+002, 1.249559e+005
2.725000e+002, 1.276164e+005
2.730000e+002, 1.269694e+005
2.735000e+002, 1.236291e+005
2.740000e+002, 1.217394e+005
2.745000e+002, 1.222491e+005
2.750000e+002, 1.216497e+005
2.755000e+002, 1.202721e+005
2.760000e+002, 1.191693e+005
2.765000e+002, 1.168960e+005
2.770000e+002, 1.152407e+005
2.775000e+002, 1.140628e+005
2.780000e+002, 1.128137e+005
2.785000e+002, 1.113679e+005
2.790000e+002, 1.096115e+005
2.795000e+002, 1.071172e+005
2.800000e+002, 1.037234e+005
2.805000e+002, 1.012015e+005
2.810000e+002, 1.015748e+005
2.815000e+002, 1.005705e+005
2.820000e+002, 9.987076e+004
2.825000e+002, 9.718983e+004
2.830000e+002, 9.438644e+004
2.835000e+002, 9.365144e+004
2.840000e+002, 9.297752e+004
2.845000e+002, 9.221051e+004
2.850000e+002, 9.130726e+004
2.855000e+002, 9.213854e+004
2.860000e+002, 9.283061e+004
2.865000e+002, 9.342987e+004
2.870000e+002, 9.233447e+004
2.875000e+002, 9.038042e+004
2.880000e+002, 9.104590e+004
2.885000e+002, 9.140324e+004
2.890000e+002, 9.051043e+004
2.895000e+002, 8.975814e+004
2.900000e+002, 8.917743e+004
2.905000e+002, 8.984355e+004
2.910000e+002, 8.966530e+004
2.915000e+002, 8.843031e+004
2.920000e+002, 8.806544e+004
2.925000e+002, 8.797143e+004
2.930000e+002, 8.800544e+004
2.935000e+002, 8.679501e+004
2.940000e+002, 8.537254e+004
2.945000e+002, 8.477926e+004
2.950000e+002, 8.487683e+004
2.955000e+002, 8.293669e+004
2.960000e+002, 8.244267e+004
2.965000e+002, 8.410771e+004
2.970000e+002, 8.276696e+004
2.975000e+002, 8.065004e+004
2.980000e+002, 8.015748e+004
2.985000e+002, 8.007118e+004
2.990000e+002, 7.980489e+004
2.995000e+002, 7.959175e+004
3.000000e+002, 7.912699e+004
3.005000e+002, 7.765908e+004
3.010000e+002, 7.632464e+004
3.015000e+002, 7.642495e+004
3.020000e+002, 7.674292e+004
3.025000e+002, 7.604726e+004
3.030000e+002, 7.420568e+004
3.035000e+002, 7.390134e+004
3.040000e+002, 7.386809e+004
3.045000e+002, 7.242632e+004
3.050000e+002, 7.134604e+004
3.055000e+002, 7.007025e+004
3.060000e+002, 7.097870e+004
3.065000e+002, 7.178338e+004
3.070000e+002, 7.113922e+004
3.075000e+002, 7.123208e+004
3.080000e+002, 7.104220e+004
3.085000e+002, 6.923851e+004
3.090000e+002, 6.785833e+004
3.095000e+002, 6.781628e+004
3.100000e+002, 6.864969e+004
3.105000e+002, 6.945271e+004
3.110000e+002, 6.938301e+004
3.115000e+002, 6.848736e+004
3.120000e+002, 6.751720e+004
3.125000e+002, 6.585410e+004
3.130000e+002, 6.531635e+004
3.135000e+002, 6.591242e+004
3.140000e+002, 6.537643e+004
3.145000e+002, 6.396089e+004
3.150000e+002, 6.348959e+004
3.155000e+002, 6.272140e+004
3.160000e+002, 6.106834e+004
3.165000e+002, 6.056503e+004
3.170000e+002, 6.152137e+004
3.175000e+002, 6.167751e+004
3.180000e+002, 6.029799e+004
3.185000e+002, 5.937935e+004
3.190000e+002, 5.881519e+004
3.195000e+002, 5.802811e+004
3.200000e+002, 5.714226e+004
3.205000e+002, 5.798236e+004
3.210000e+002, 5.937409e+004
3.215000e+002, 5.791931e+004
3.220000e+002, 5.537032e+004
3.225000e+002, 5.386489e+004
3.230000e+002, 5.380684e+004
3.235000e+002, 5.496582e+004
3.240000e+002, 5.485066e+004
3.245000e+002, 5.348548e+004
3.250000e+002, 5.265780e+004
3.255000e+002, 5.300775e+004
3.260000e+002, 5.180151e+004
3.265000e+002, 4.914323e+004
3.270000e+002, 4.926226e+004
3.275000e+002, 4.945890e+004
3.280000e+002, 4.982318e+004
3.285000e+002, 4.997097e+004
3.290000e+002, 4.943890e+004
3.295000e+002, 4.820019e+004
3.300000e+002, 4.735705e+004
3.305000e+002, 4.703822e+004
3.310000e+002, 4.651232e+004
3.315000e+002, 4.683697e+004
3.320000e+002, 4.679895e+004
3.325000e+002, 4.647248e+004
3.330000e+002, 4.625873e+004
3.335000e+002, 4.498540e+004
3.340000e+002, 4.439398e+004
3.345000e+002, 4.364516e+004
3.350000e+002, 4.415203e+004
3.355000e+002, 4.510403e+004
3.360000e+002, 4.462616e+004
3.365000e+002, 4.381153e+004
3.370000e+002, 4.403621e+004
3.375000e+002, 4.381446e+004
3.380000e+002, 4.324527e+004
3.385000e+002, 4.388078e+004
3.390000e+002, 4.429903e+004
3.395000e+002, 4.274907e+004
3.400000e+002, 4.154259e+004
3.405000e+002, 4.238170e+004
3.410000e+002, 4.240050e+004
3.415000e+002, 4.207085e+004
3.420000e+002, 4.228685e+004
3.425000e+002, 4.162043e+004
3.430000e+002, 4.046501e+004
3.435000e+002, 4.100628e+004
3.440000e+002, 4.146195e+004
3.445000e+002, 4.085064e+004
3.450000e+002, 4.037012e+004
3.455000e+002, 3.958399e+004
3.460000e+002, 3.895126e+004
3.465000e+002, 3.939694e+004
3.470000e+002, 3.978169e+004
3.475000e+002, 3.893081e+004
3.480000e+002, 3.879885e+004
3.485000e+002, 3.811970e+004
3.490000e+002, 3.788785e+004
3.495000e+002, 3.889773e+004
3.500000e+002, 3.873541e+004
3.505000e+002, 3.776530e+004
3.510000e+002, 3.743007e+004
3.515000e+002, 3.729342e+004
3.520000e+002, 3.630504e+004
3.525000e+002, 3.611097e+004
3.530000e+002, 3.636263e+004
3.535000e+002, 3.575519e+004
3.540000e+002, 3.560589e+004
3.545000e+002, 3.547185e+004
3.550000e+002, 3.651663e+004
3.555000e+002, 3.709265e+004
3.560000e+002, 3.520966e+004
3.565000e+002, 3.479603e+004
3.570000e+002, 3.525598e+004
3.575000e+002, 3.469166e+004
3.580000e+002, 3.430510e+004
3.585000e+002, 3.473088e+004
3.590000e+002, 3.540967e+004
3.595000e+002, 3.527099e+004
3.600000e+002, 3.353266e+004
3.605000e+002, 3.243177e+004
3.610000e+002, 3.247900e+004
3.615000e+002, 3.356777e+004
3.620000e+002, 3.403514e+004
3.625000e+002, 3.314099e+004
3.630000e+002, 3.233776e+004
3.635000e+002, 3.170502e+004
3.640000e+002, 3.155616e+004
3.645000e+002, 3.226758e+004
3.650000e+002, 3.271993e+004
3.655000e+002, 3.130046e+004
3.660000e+002, 3.087320e+004
3.665000e+002, 3.101080e+004
3.670000e+002, 2.983631e+004
3.675000e+002, 2.981774e+004
3.680000e+002, 3.119957e+004
3.685000e+002, 3.111728e+004
3.690000e+002, 3.002514e+004
3.695000e+002, 2.933246e+004
3.700000e+002, 2.985174e+004
3.705000e+002, 3.128101e+004
3.710000e+002, 3.182285e+004
3.715000e+002, 3.031303e+004
3.720000e+002, 2.919550e+004
3.725000e+002, 2.916813e+004
3.730000e+002, 2.892434e+004
3.735000e+002, 2.953703e+004
3.740000e+002, 2.981424e+004
3.745000e+002, 2.945646e+004
3.750000e+002, 2.967516e+004
3.755000e+002, 3.021429e+004
3.760000e+002, 2.975974e+004
3.765000e+002, 2.853594e+004
3.770000e+002, 2.883875e+004
3.775000e+002, 2.887542e+004
3.780000e+002, 2.839058e+004
3.785000e+002, 2.859366e+004
3.790000e+002, 2.790260e+004
3.795000e+002, 2.754118e+004
3.800000e+002, 2.739584e+004
3.805000e+002, 2.788402e+004
3.810000e+002, 2.842964e+004
3.815000e+002, 2.787265e+004
3.820000e+002, 2.727627e+004
3.825000e+002, 2.693150e+004
3.830000e+002, 2.703071e+004
3.835000e+002, 2.765960e+004
3.840000e+002, 2.655909e+004
3.845000e+002, 2.653117e+004
3.850000e+002, 2.703651e+004
3.855000e+002, 2.671470e+004
3.860000e+002, 2.609672e+004
3.865000e+002, 2.583667e+004
3.870000e+002, 2.507093e+004
3.875000e+002, 2.550819e+004
3.880000e+002, 2.594480e+004
3.885000e+002, 2.553748e+004
3.890000e+002, 2.597760e+004
3.895000e+002, 2.601315e+004
3.900000e+002, 2.505564e+004
3.905000e+002, 2.390107e+004
3.910000e+002, 2.407020e+004
3.915000e+002, 2.473961e+004
3.920000e+002, 2.433885e+004
3.925000e+002, 2.421168e+004
3.930000e+002, 2.456528e+004
3.935000e+002, 2.415503e+004
3.940000e+002, 2.414972e+004
3.945000e+002, 2.365717e+004
3.950000e+002, 2.371416e+004
3.955000e+002, 2.409417e+004
3.960000e+002, 2.362940e+004
3.965000e+002, 2.420098e+004
3.970000e+002, 2.387531e+004
3.975000e+002, 2.308789e+004
3.980000e+002, 2.300819e+004
3.985000e+002, 2.244112e+004
3.990000e+002, 2.269015e+004
3.995000e+002, 2.296608e+004
4.000000e+002, 2.227269e+004
4.005000e+002, 2.240899e+004
4.010000e+002, 2.304455e+004
4.015000e+002, 2.486946e+004
4.020000e+002, 3.150110e+004
4.025000e+002, 4.432573e+004
4.030000e+002, 5.860631e+004
4.035000e+002, 6.710685e+004
4.040000e+002, 6.763112e+004
4.045000e+002, 6.380730e+004
4.050000e+002, 6.073877e+004
4.055000e+002, 5.879228e+004
4.060000e+002, 5.755907e+004
4.065000e+002, 5.868798e+004
4.070000e+002, 6.487166e+004
4.075000e+002, 7.598936e+004
4.080000e+002, 8.883555e+004
4.085000e+002, 1.032617e+005
4.090000e+002, 1.206064e+005
4.095000e+002, 1.389754e+005
4.100000e+002, 1.538913e+005
4.105000e+002, 1.596577e+005
4.110000e+002, 1.547746e+005
4.115000e+002, 1.442211e+005
4.120000e+002, 1.298398e+005
4.125000e+002, 1.170090e+005
4.130000e+002, 1.085507e+005
4.135000e+002, 1.051166e+005
4.140000e+002, 1.050590e+005
4.145000e+002, 1.071569e+005
4.150000e+002, 1.114623e+005
4.155000e+002, 1.167161e+005
4.160000e+002, 1.224433e+005
4.165000e+002, 1.280738e+005
4.170000e+002, 1.322324e+005
4.175000e+002, 1.336538e+005
4.180000e+002, 1.333867e+005
4.185000e+002, 1.313496e+005
4.190000e+002, 1.262886e+005
4.195000e+002, 1.179686e+005
4.200000e+002, 1.096629e+005
4.205000e+002, 1.011999e+005
4.210000e+002, 9.230892e+004
4.215000e+002, 8.470666e+004
4.220000e+002, 7.766341e+004
4.225000e+002, 7.150670e+004
4.230000e+002, 6.596266e+004
4.235000e+002, 6.184167e+004
4.240000e+002, 5.961243e+004
4.245000e+002, 5.902719e+004
4.250000e+002, 6.002256e+004
4.255000e+002, 5.983615e+004
4.260000e+002, 5.985567e+004
4.265000e+002, 6.086538e+004
4.270000e+002, 6.137592e+004
4.275000e+002, 6.120104e+004
4.280000e+002, 6.053854e+004
4.285000e+002, 5.997905e+004
4.290000e+002, 6.009571e+004
4.295000e+002, 5.944355e+004
4.300000e+002, 5.796123e+004
4.305000e+002, 5.552547e+004
4.310000e+002, 5.302466e+004
4.315000e+002, 5.321714e+004
4.320000e+002, 5.372561e+004
4.325000e+002, 5.273217e+004
4.330000e+002, 5.217891e+004
4.335000e+002, 5.273170e+004
4.340000e+002, 5.276952e+004
4.345000e+002, 5.244200e+004
4.350000e+002, 5.342060e+004
4.355000e+002, 5.462161e+004
4.359999e+002, 5.581220e+004
4.364999e+002, 5.717964e+004
4.369999e+002, 5.734902e+004
4.374999e+002, 5.771320e+004
4.379999e+002, 5.836700e+004
4.384999e+002, 5.996254e+004
4.389999e+002, 6.256572e+004
4.394999e+002, 6.342137e+004
4.399999e+002, 6.309697e+004
4.404999e+002, 6.324731e+004
4.409999e+002, 6.408428e+004
4.414999e+002, 6.462033e+004
4.419999e+002, 6.453917e+004
4.424999e+002, 6.467400e+004
4.429999e+002, 6.510838e+004
4.434999e+002, 6.471481e+004
4.439999e+002, 6.364939e+004
4.444999e+002, 6.213953e+004
4.449999e+002, 6.150075e+004
4.454999e+002, 6.075968e+004
4.459999e+002, 5.930292e+004
4.464999e+002, 5.809870e+004
4.469999e+002, 5.757778e+004
4.474999e+002, 5.744477e+004
4.479999e+002, 5.647038e+004
4.484999e+002, 5.371412e+004
4.489999e+002, 5.211694e+004
4.494999e+002, 5.172957e+004
4.499999e+002, 5.165810e+004
4.504999e+002, 5.098952e+004
4.509999e+002, 4.958182e+004
4.514999e+002, 4.946463e+004
4.519999e+002, 4.948456e+004
4.524999e+002, 4.858138e+004
4.529999e+002, 4.672865e+004
4.534999e+002, 4.597804e+004
4.539999e+002, 4.584077e+004
4.544999e+002, 4.587595e+004
4.549999e+002, 4.693736e+004
4.554999e+002, 4.643754e+004
4.559999e+002, 4.553057e+004
4.564999e+002, 4.614952e+004
4.569999e+002, 4.679950e+004
4.574999e+002, 4.661774e+004
4.579999e+002, 4.612479e+004
4.584999e+002, 4.593098e+004
4.589999e+002, 4.586468e+004
4.594999e+002, 4.661058e+004
4.599999e+002, 4.690217e+004
4.604999e+002, 4.738057e+004
4.609999e+002, 4.750176e+004
4.614999e+002, 4.632621e+004
4.619999e+002, 4.598532e+004
4.624999e+002, 4.578810e+004
4.629999e+002, 4.495518e+004
4.634999e+002, 4.402649e+004
4.639999e+002, 4.450839e+004
4.644999e+002, 4.446054e+004
4.649999e+002, 4.362393e+004
4.654999e+002, 4.322802e+004
4.659999e+002, 4.279964e+004
4.664999e+002, 4.108638e+004
4.669999e+002, 4.075648e+004
4.674999e+002, 4.161201e+004
4.679999e+002, 4.187653e+004
4.684999e+002, 4.076538e+004
4.689999e+002, 3.975624e+004
4.694999e+002, 3.960305e+004
4.699999e+002, 3.945714e+004
4.704999e+002, 3.947612e+004
4.709999e+002, 3.989143e+004
4.714999e+002, 4.015955e+004
4.719999e+002, 4.004335e+004
4.724999e+002, 3.931912e+004
4.729999e+002, 3.867646e+004
4.734999e+002, 3.915365e+004
4.739999e+002, 3.963036e+004
4.744999e+002, 3.899070e+004
4.749999e+002, 3.889510e+004
4.754999e+002, 3.888592e+004
4.759999e+002, 3.858540e+004
4.764999e+002, 3.870646e+004
4.769999e+002, 3.879684e+004
4.774999e+002, 3.965083e+004
4.779999e+002, 3.956298e+004
4.784999e+002, 3.915215e+004
4.789999e+002, 3.993370e+004
4.794999e+002, 4.034458e+004
4.799999e+002, 4.017099e+004
4.804999e+002, 3.893758e+004
4.809999e+002, 3.887124e+004
4.814999e+002, 3.949241e+004
4.819999e+002, 3.924756e+004
4.824999e+002, 3.968345e+004
4.829999e+002, 3.953786e+004
4.834999e+002, 3.868758e+004
4.839999e+002, 3.924342e+004
4.844999e+002, 3.903900e+004
4.849999e+002, 3.875645e+004
4.854999e+002, 3.784145e+004
4.859999e+002, 3.746572e+004
4.864999e+002, 3.773751e+004
4.869999e+002, 3.719291e+004
4.874999e+002, 3.794465e+004
4.879999e+002, 3.793084e+004
4.884999e+002, 3.759996e+004
4.889999e+002, 3.712630e+004
4.894999e+002, 3.596865e+004
4.899999e+002, 3.595324e+004
4.904999e+002, 3.585533e+004
4.909999e+002, 3.564592e+004
4.914999e+002, 3.613008e+004
4.919999e+002, 3.598248e+004
4.924999e+002, 3.573302e+004
4.929999e+002, 3.493154e+004
4.934999e+002, 3.492244e+004
4.939999e+002, 3.528144e+004
4.944999e+002, 3.510797e+004
4.949999e+002, 3.502781e+004
4.954999e+002, 3.479901e+004
4.959999e+002, 3.433067e+004
4.964999e+002, 3.462201e+004
4.969999e+002, 3.466610e+004
4.974999e+002, 3.434111e+004
4.979999e+002, 3.364912e+004
4.984999e+002, 3.341453e+004
4.989999e+002, 3.295229e+004
4.994999e+002, 3.233338e+004
4.999999e+002, 3.265174e+004
5.004999e+002, 3.290355e+004
5.009999e+002, 3.282881e+004
5.014999e+002, 3.258968e+004
5.019999e+002, 3.251659e+004
5.024999e+002, 3.272663e+004
5.029999e+002, 3.230631e+004
5.034999e+002, 3.151016e+004
5.039999e+002, 3.083967e+004
5.044999e+002, 3.061199e+004
5.049999e+002, 3.181899e+004
5.054999e+002, 3.218504e+004
5.059999e+002, 3.072717e+004
5.064999e+002, 3.006567e+004
5.069999e+002, 3.011227e+004
5.074999e+002, 3.035709e+004
5.079999e+002, 2.996394e+004
5.084999e+002, 2.956972e+004
5.089999e+002, 3.025239e+004
5.094999e+002, 3.029380e+004
5.099999e+002, 3.035947e+004
5.104999e+002, 2.992838e+004
5.109999e+002, 2.906481e+004
5.114999e+002, 2.931647e+004
5.119999e+002, 2.995965e+004
5.124999e+002, 2.895579e+004
5.129999e+002, 2.865399e+004
5.134999e+002, 2.889661e+004
5.139999e+002, 2.980809e+004
5.144999e+002, 3.051398e+004
5.149999e+002, 2.963817e+004
5.154999e+002, 2.898329e+004
5.159999e+002, 2.849720e+004
5.164999e+002, 2.824202e+004
5.169999e+002, 2.821805e+004
5.174999e+002, 2.862928e+004
5.179999e+002, 2.847319e+004
5.184999e+002, 2.734958e+004
5.189999e+002, 2.750225e+004
5.194999e+002, 2.794948e+004
5.199999e+002, 2.831033e+004
5.204999e+002, 2.775681e+004
5.209999e+002, 2.749572e+004
5.214999e+002, 2.777114e+004
5.219999e+002, 2.716018e+004
5.224999e+002, 2.705090e+004
5.229999e+002, 2.713528e+004
5.234999e+002, 2.690850e+004
5.239999e+002, 2.659000e+004
5.244999e+002, 2.620743e+004
5.249999e+002, 2.583754e+004
5.254999e+002, 2.565250e+004
5.259999e+002, 2.603211e+004
5.264999e+002, 2.634961e+004
5.269999e+002, 2.622636e+004
5.274999e+002, 2.597883e+004
5.279999e+002, 2.599218e+004
5.284999e+002, 2.542339e+004
5.289999e+002, 2.462655e+004
5.294999e+002, 2.339683e+004
5.299999e+002, 2.368837e+004
5.304999e+002, 2.473350e+004
5.309999e+002, 2.554141e+004
5.314999e+002, 2.519164e+004
5.319999e+002, 2.344907e+004
5.324999e+002, 2.382886e+004
5.329999e+002, 2.444747e+004
5.334999e+002, 2.344966e+004
5.339999e+002, 2.294321e+004
5.344999e+002, 2.373084e+004
5.349999e+002, 2.435045e+004
5.354999e+002, 2.360497e+004
5.359999e+002, 2.295469e+004
5.364999e+002, 2.193488e+004
5.369999e+002, 2.212035e+004
5.374999e+002, 2.290557e+004
5.379999e+002, 2.248167e+004
5.384999e+002, 2.257092e+004
5.389999e+002, 2.289717e+004
5.394999e+002, 2.316893e+004
5.399999e+002, 2.243484e+004
5.404999e+002, 2.181998e+004
5.409999e+002, 2.198563e+004
5.414999e+002, 2.236105e+004
5.419999e+002, 2.301546e+004
5.424999e+002, 2.299161e+004
5.429999e+002, 2.220712e+004
5.434999e+002, 2.129367e+004
5.439999e+002, 2.169626e+004
5.444999e+002, 2.220780e+004
5.449999e+002, 2.178049e+004
5.454999e+002, 2.135274e+004
5.459999e+002, 2.160573e+004
5.464999e+002, 2.205208e+004
5.469999e+002, 2.132117e+004
5.474999e+002, 2.012627e+004
5.479999e+002, 2.001005e+004
5.484999e+002, 2.095764e+004
5.489999e+002, 2.136051e+004
5.494999e+002, 2.040911e+004
5.499999e+002, 2.140772e+004
5.504999e+002, 2.165900e+004
5.509999e+002, 2.098586e+004
5.514999e+002, 2.152491e+004
5.519999e+002, 2.109551e+004
5.524999e+002, 2.089115e+004
5.529999e+002, 2.051947e+004
5.534999e+002, 2.043576e+004
5.539999e+002, 2.100113e+004
5.544999e+002, 2.092766e+004
5.549999e+002, 2.032854e+004
5.554999e+002, 1.984621e+004
5.559999e+002, 2.072783e+004
5.564999e+002, 2.010262e+004
5.569999e+002, 1.946870e+004
5.574999e+002, 2.035944e+004
5.579999e+002, 2.031605e+004
5.584999e+002, 1.928902e+004
5.589999e+002, 1.923997e+004
5.594999e+002, 1.932080e+004
5.599999e+002, 1.859259e+004
5.604999e+002, 1.868061e+004
5.609999e+002, 1.933551e+004
5.614999e+002, 1.956718e+004
5.619999e+002, 1.832521e+004
5.624999e+002, 1.796143e+004
5.629999e+002, 1.850344e+004
5.634999e+002, 1.844890e+004
5.639999e+002, 1.905319e+004
5.644999e+002, 1.878304e+004
5.649999e+002, 1.839088e+004
5.654999e+002, 1.819704e+004
5.659999e+002, 1.763422e+004
5.664999e+002, 1.845158e+004
5.669999e+002, 1.867807e+004
5.674999e+002, 1.785660e+004
5.679999e+002, 1.760901e+004
5.684999e+002, 1.805691e+004
5.689999e+002, 1.808053e+004
5.694999e+002, 1.787874e+004
5.699999e+002, 1.788765e+004
5.704999e+002, 1.733697e+004
5.709999e+002, 1.740360e+004
5.714999e+002, 1.826018e+004
5.719999e+002, 1.817555e+004
5.724999e+002, 1.750991e+004
5.729999e+002, 1.679924e+004
5.734999e+002, 1.723681e+004
5.739999e+002, 1.762280e+004
5.744999e+002, 1.696629e+004
5.749999e+002, 1.685637e+004
5.754999e+002, 1.709037e+004
5.759999e+002, 1.652786e+004
5.764999e+002, 1.646866e+004
5.769999e+002, 1.649607e+004
5.774999e+002, 1.583656e+004
5.779999e+002, 1.589858e+004
5.784999e+002, 1.729427e+004
5.789999e+002, 1.706940e+004
5.794999e+002, 1.591588e+004
5.799999e+002, 1.602776e+004
5.804999e+002, 1.618303e+004
5.809999e+002, 1.644137e+004
5.814999e+002, 1.778530e+004
5.819999e+002, 1.733532e+004
5.824999e+002, 1.640894e+004
5.829999e+002, 1.569652e+004
5.834999e+002, 1.523737e+004
5.839999e+002, 1.604958e+004
5.844999e+002, 1.629689e+004
5.849999e+002, 1.635189e+004
5.854999e+002, 1.645261e+004
5.859999e+002, 1.584894e+004
5.864999e+002, 1.612300e+004
5.869999e+002, 1.594226e+004
5.874999e+002, 1.550073e+004
5.879999e+002, 1.583953e+004
5.884999e+002, 1.633215e+004
5.889999e+002, 1.586470e+004
5.894999e+002, 1.516591e+004
5.899999e+002, 1.491055e+004
5.904999e+002, 1.489551e+004
5.909999e+002, 1.576116e+004
5.914999e+002, 1.612690e+004
5.919999e+002, 1.579868e+004
5.924999e+002, 1.511907e+004
5.929999e+002, 1.435187e+004
5.934999e+002, 1.463141e+004
5.939999e+002, 1.510436e+004
5.944999e+002, 1.523992e+004
5.949999e+002, 1.540731e+004
5.954999e+002, 1.527308e+004
5.959999e+002, 1.490741e+004
5.964999e+002, 1.453087e+004
5.969999e+002, 1.531472e+004
5.974999e+002, 1.507042e+004
5.979999e+002, 1.416256e+004
5.984999e+002, 1.459484e+004
5.989999e+002, 1.509592e+004
5.994999e+002, 1.443917e+004
5.999999e+002, 1.415402e+004
6.004999e+002, 1.444746e+004
6.009999e+002, 1.383428e+004
6.014999e+002, 1.317053e+004
6.019999e+002, 1.321611e+004
6.024999e+002, 1.429717e+004
6.029999e+002, 1.464887e+004
6.034999e+002, 1.404312e+004
6.039999e+002, 1.443446e+004
6.044999e+002, 1.499679e+004
6.049999e+002, 1.487570e+004
6.054999e+002, 1.440942e+004
6.059999e+002, 1.329881e+004
6.064999e+002, 1.291737e+004
6.069999e+002, 1.376481e+004
6.074999e+002, 1.394464e+004
6.079999e+002, 1.355558e+004
6.084999e+002, 1.322704e+004
6.089999e+002, 1.278016e+004
6.094999e+002, 1.234704e+004
6.099999e+002, 1.252564e+004
6.104999e+002, 1.314207e+004
6.109999e+002, 1.337427e+004
6.114999e+002, 1.286727e+004
6.119999e+002, 1.280373e+004
6.124999e+002, 1.353709e+004
6.129999e+002, 1.339362e+004
6.134999e+002, 1.223183e+004
6.139999e+002, 1.165676e+004
6.144999e+002, 1.236918e+004
6.149999e+002, 1.297823e+004
6.154999e+002, 1.249309e+004
6.159999e+002, 1.177146e+004
6.164999e+002, 1.253967e+004
6.169999e+002, 1.370767e+004
6.174999e+002, 1.295222e+004
6.179999e+002, 1.241620e+004
6.184999e+002, 1.190609e+004
6.189999e+002, 1.190832e+004
6.194999e+002, 1.260381e+004
6.199999e+002, 1.260001e+004
6.204999e+002, 1.184333e+004
6.209999e+002, 1.137724e+004
6.214999e+002, 1.159253e+004
6.219999e+002, 1.157355e+004
6.224999e+002, 1.208039e+004
6.229999e+002, 1.212395e+004
6.234999e+002, 1.197921e+004
6.239999e+002, 1.189147e+004
6.244999e+002, 1.111977e+004
6.249999e+002, 1.128360e+004
#ENDOFDATA   : End Of Data and File