EELSMODEL model file
do 16. jun 14:55:45 2005
FILENAME of HL spectrum:C:/Program Files/eelsmodel_1_1/eelsmodel_release_1_1/eelsmodel/SrTiO3_example/hl.msa
NAME of HL spectrum:hl
256
energy	experiment	model	Power law background	Ti L23	O K	Multiple scattering (matrix convolution)	DOS O	DOS Ti
357.5	29218.7	30448.36	30448.36	0	0	0	0	0
357.8	29620.731	30368.546	30368.546	0	0	0	0	0
358.1	29666.753	30289.007	30289.007	0	0	0	0	0
358.4	29559.695	30209.743	30209.743	0	0	0	0	0
358.7	29329.825	30130.753	30130.753	0	0	0	0	0
359	29227.725	30052.035	30052.035	0	0	0	0	0
359.3	29195.56	29973.588	29973.588	0	0	0	0	0
359.6	29149.663	29895.411	29895.411	0	0	0	0	0
359.9	29100.837	29817.503	29817.503	0	0	0	0	0
360.2	28946.485	29739.863	29739.863	0	0	0	0	0
360.5	28974.84	29662.489	29662.489	0	0	0	0	0
360.8	28753.488	29585.381	29585.381	0	0	0	0	0
361.1	28554.635	29508.537	29508.537	0	0	0	0	0
361.4	28697.667	29431.956	29431.956	0	0	0	0	0
361.7	28701.361	29355.637	29355.637	0	0	0	0	0
362	28694.107	29279.579	29279.579	0	0	0	0	0
362.3	28455.587	29203.781	29203.781	0	0	0	0	0
362.6	28323.111	29128.242	29128.242	0	0	0	0	0
362.9	28344.337	29052.96	29052.96	0	0	0	0	0
363.2	28400.407	28977.935	28977.935	0	0	0	0	0
363.5	28392.531	28903.165	28903.165	0	0	0	0	0
363.8	28363.917	28828.649	28828.649	0	0	0	0	0
364.1	28363.027	28754.387	28754.387	0	0	0	0	0
364.4	28246.82	28680.377	28680.377	0	0	0	0	0
364.7	28202.827	28606.618	28606.618	0	0	0	0	0
365	28195.458	28533.11	28533.11	0	0	0	0	0
365.3	28293.225	28459.85	28459.85	0	0	0	0	0
365.6	28294.497	28386.839	28386.839	0	0	0	0	0
365.9	28212.11	28314.074	28314.074	0	0	0	0	0
366.2	28210.588	28241.555	28241.555	0	0	0	0	0
366.5	28112.047	28169.281	28169.281	0	0	0	0	0
366.8	28016.951	28097.252	28097.252	0	0	0	0	0
367.1	27948.545	28025.464	28025.464	0	0	0	0	0
367.4	27998.261	27953.919	27953.919	0	0	0	0	0
367.7	27933.798	27882.615	27882.615	0	0	0	0	0
368	27989.361	27811.55	27811.55	0	0	0	0	0
368.3	27781.857	27740.724	27740.724	0	0	0	0	0
368.6	27702.523	27670.136	27670.136	0	0	0	0	0
368.9	27587.33	27599.785	27599.785	0	0	0	0	0
369.2	27507.737	27529.67	27529.67	0	0	0	0	0
369.5	27557.711	27459.789	27459.789	0	0	0	0	0
369.8	27601.953	27390.143	27390.143	0	0	0	0	0
370.1	27423.187	27320.729	27320.729	0	0	0	0	0
370.4	27307.87	27251.547	27251.547	0	0	0	0	0
370.7	27223.703	27182.596	27182.596	0	0	0	0	0
371	27135.851	27113.875	27113.875	0	0	0	0	0
371.3	27117.027	27045.384	27045.384	0	0	0	0	0
371.6	26961.785	26977.12	26977.12	0	0	0	0	0
371.9	26793.325	26909.084	26909.084	0	0	0	0	0
372.2	26660.965	26841.274	26841.274	0	0	0	0	0
372.5	26525.177	26773.689	26773.689	0	0	0	0	0
372.8	26414.951	26706.328	26706.328	0	0	0	0	0
373.1	26475.595	26639.191	26639.191	0	0	0	0	0
373.4	26513.607	26572.277	26572.277	0	0	0	0	0
373.7	26513.99	26505.584	26505.584	0	0	0	0	0
374	26388.883	26439.112	26439.112	0	0	0	0	0
374.3	26167.655	26372.86	26372.86	0	0	0	0	0
374.6	26018.901	26306.826	26306.826	0	0	0	0	0
374.9	25980.115	26241.011	26241.011	0	0	0	0	0
375.2	25999.063	26175.412	26175.412	0	0	0	0	0
375.5	25861.237	26110.03	26110.03	0	0	0	0	0
375.8	25823.35	26044.863	26044.863	0	0	0	0	0
376.1	25665.695	25979.911	25979.911	0	0	0	0	0
376.4	25627.301	25915.172	25915.172	0	0	0	0	0
376.7	25603.645	25850.646	25850.646	0	0	0	0	0
377	25640.775	25786.332	25786.332	0	0	0	0	0
377.3	25705.238	25722.229	25722.229	0	0	0	0	0
377.6	25641.283	25658.336	25658.336	0	0	0	0	0
377.9	25578.351	25594.652	25594.652	0	0	0	0	0
378.2	25540.588	25531.176	25531.176	0	0	0	0	0
378.5	25341.611	25467.908	25467.908	0	0	0	0	0
378.8	25134.241	25404.847	25404.847	0	0	0	0	0
379.1	25024.13	25341.992	25341.992	0	0	0	0	0
379.4	24955.217	25279.342	25279.342	0	0	0	0	0
379.7	24953.055	25216.896	25216.896	0	0	0	0	0
380	24981.285	25154.653	25154.653	0	0	0	0	0
380.3	24866.475	25092.613	25092.613	0	0	0	0	0
380.6	24857.958	25030.775	25030.775	0	0	0	0	0
380.9	24908.937	24969.137	24969.137	0	0	0	0	0
381.2	24825.277	24907.7	24907.7	0	0	0	0	0
381.5	24679.451	24846.462	24846.462	0	0	0	0	0
381.8	24561.33	24785.423	24785.423	0	0	0	0	0
382.1	24461.65	24724.581	24724.581	0	0	0	0	0
382.4	24403.293	24663.937	24663.937	0	0	0	0	0
382.7	24284.54	24603.488	24603.488	0	0	0	0	0
383	24158.801	24543.235	24543.235	0	0	0	0	0
383.3	24177.998	24483.176	24483.176	0	0	0	0	0
383.6	24207.617	24423.311	24423.311	0	0	0	0	0
383.9	24274.118	24363.639	24363.639	0	0	0	0	0
384.2	24182.315	24304.159	24304.159	0	0	0	0	0
384.5	24228.853	24244.871	24244.871	0	0	0	0	0
384.8	24190.583	24185.774	24185.774	0	0	0	0	0
385.1	24084.415	24126.866	24126.866	0	0	0	0	0
385.4	24021.225	24068.148	24068.148	0	0	0	0	0
385.7	23971.643	24009.618	24009.618	0	0	0	0	0
386	23915.573	23951.276	23951.276	0	0	0	0	0
386.3	23829.875	23893.12	23893.12	0	0	0	0	0
386.6	23653.023	23835.151	23835.151	0	0	0	0	0
386.9	23668.411	23777.367	23777.367	0	0	0	0	0
387.2	23704.767	23719.768	23719.768	0	0	0	0	0
387.5	23620.351	23662.353	23662.353	0	0	0	0	0
387.8	23419.967	23605.121	23605.121	0	0	0	0	0
388.1	23323.215	23548.072	23548.072	0	0	0	0	0
388.4	23411.45	23491.205	23491.205	0	0	0	0	0
388.7	23445.395	23434.518	23434.518	0	0	0	0	0
389	23253.795	23378.012	23378.012	0	0	0	0	0
389.3	23143.56	23321.686	23321.686	0	0	0	0	0
389.6	23117.875	23265.539	23265.539	0	0	0	0	0
389.9	23065.747	23209.569	23209.569	0	0	0	0	0
390.2	23000.653	23153.778	23153.778	0	0	0	0	0
390.5	22914.581	23098.163	23098.163	0	0	0	0	0
390.8	22841.218	23042.724	23042.724	0	0	0	0	0
391.1	22928.18	22987.461	22987.461	0	0	0	0	0
391.4	22878.465	22932.373	22932.373	0	0	0	0	0
391.7	22739.883	22877.458	22877.458	0	0	0	0	0
392	22582.095	22822.717	22822.717	0	0	0	0	0
392.3	22460.547	22768.149	22768.149	0	0	0	0	0
392.6	22421.77	22713.753	22713.753	0	0	0	0	0
392.9	22529.46	22659.528	22659.528	0	0	0	0	0
393.2	22511.277	22605.474	22605.474	0	0	0	0	0
393.5	22505.555	22551.589	22551.589	0	0	0	0	0
393.8	22515.861	22497.875	22497.875	0	0	0	0	0
394.1	22433.215	22444.328	22444.328	0	0	0	0	0
394.4	22418.468	22390.95	22390.95	0	0	0	0	0
394.7	22323.238	22337.74	22337.74	0	0	0	0	0
395	22171.938	22284.696	22284.696	0	0	0	0	0
395.3	22124.003	22231.818	22231.818	0	0	0	0	0
395.6	22076.067	22179.105	22179.105	0	0	0	0	0
395.9	22114.088	22126.558	22126.558	0	0	0	0	0
396.2	22013.518	22074.174	22074.174	0	0	0	0	0
396.5	22002.073	22021.954	22021.954	0	0	0	0	0
396.8	21891.455	21969.897	21969.897	0	0	0	0	0
397.1	21848.361	21918.003	21918.003	0	0	0	0	0
397.4	21845.433	21866.27	21866.27	0	0	0	0	0
397.7	21824.197	21814.697	21814.697	0	0	0	0	0
398	21785.42	21763.286	21763.286	0	0	0	0	0
398.3	21793.305	21712.034	21712.034	0	0	0	0	0
398.6	21705.961	21660.941	21660.941	0	0	0	0	0
398.9	21637.68	21610.006	21610.006	0	0	0	0	0
399.2	21700.363	21559.23	21559.23	0	0	0	0	0
399.5	21615.555	21508.611	21508.611	0	0	0	0	0
399.8	21462.733	21458.149	21458.149	0	0	0	0	0
400.1	21464.895	21407.842	21407.842	0	0	0	0	0
400.4	21370.68	21357.692	21357.692	0	0	0	0	0
400.7	21371.828	21307.696	21307.696	0	0	0	0	0
401	21273.421	21257.854	21257.854	0	0	0	0	0
401.3	21173.99	21208.167	21208.167	0	0	0	0	0
401.6	21080.415	21158.632	21158.632	0	0	0	0	0
401.9	21032.231	21109.25	21109.25	0	0	0	0	0
402.2	20962.935	21060.02	21060.02	0	0	0	0	0
402.5	20972.725	21010.941	21010.941	0	0	0	0	0
402.8	20933.948	20962.013	20962.013	0	0	0	0	0
403.1	20859.945	20913.236	20913.236	0	0	0	0	0
403.4	20869.103	20864.608	20864.608	0	0	0	0	0
403.7	20784.295	20816.129	20816.129	0	0	0	0	0
404	20744.627	20767.798	20767.798	0	0	0	0	0
404.3	20762.561	20719.616	20719.616	0	0	0	0	0
404.6	20745.517	20671.581	20671.581	0	0	0	0	0
404.9	20727.975	20623.693	20623.693	0	0	0	0	0
405.2	20610.745	20575.951	20575.951	0	0	0	0	0
405.5	20596.38	20528.355	20528.355	0	0	0	0	0
405.8	20608.333	20480.904	20480.904	0	0	0	0	0
406.1	20522.768	20433.597	20433.597	0	0	0	0	0
406.4	20506.615	20386.435	20386.435	0	0	0	0	0
406.7	20576.675	20339.416	20339.416	0	0	0	0	0
407	20521.113	20292.541	20292.541	0	0	0	0	0
407.3	20419.395	20245.807	20245.807	0	0	0	0	0
407.6	20495.81	20199.216	20199.216	0	0	0	0	0
407.9	20377.947	20152.766	20152.766	0	0	0	0	0
408.2	20172.615	20106.457	20106.457	0	0	0	0	0
408.5	20153.667	20060.288	20060.288	0	0	0	0	0
408.8	20060.093	20014.259	20014.259	0	0	0	0	0
409.1	20008.855	19968.369	19968.369	0	0	0	0	0
409.4	20002.75	19922.618	19922.618	0	0	0	0	0
409.7	19886.16	19877.005	19877.005	0	0	0	0	0
410	19813.055	19831.53	19831.53	0	0	0	0	0
410.3	19796.528	19786.192	19786.192	0	0	0	0	0
410.6	19764.355	19740.991	19740.991	0	0	0	0	0
410.9	19709.05	19695.926	19695.926	0	0	0	0	0
411.2	19623.735	19650.997	19650.997	0	0	0	0	0
411.5	19658.445	19606.202	19606.202	0	0	0	0	0
411.8	19511.087	19561.543	19561.543	0	0	0	0	0
412.1	19537.663	19517.017	19517.017	0	0	0	0	0
412.4	19526.858	19472.625	19472.625	0	0	0	0	0
412.7	19440.145	19428.367	19428.367	0	0	0	0	0
413	19403.905	19384.241	19384.241	0	0	0	0	0
413.3	19458.07	19340.247	19340.247	0	0	0	0	0
413.6	19506.895	19296.385	19296.385	0	0	0	0	0
413.9	19408.355	19252.653	19252.653	0	0	0	0	0
414.2	19294.185	19209.053	19209.053	0	0	0	0	0
414.5	19318.847	19165.583	19165.583	0	0	0	0	0
414.8	19286.941	19122.242	19122.242	0	0	0	0	0
415.1	19086.557	19079.031	19079.031	0	0	0	0	0
415.4	19084.528	19035.949	19035.949	0	0	0	0	0
415.7	19056.555	18992.994	18992.994	0	0	0	0	0
416	19088.337	18950.168	18950.168	0	0	0	0	0
416.3	19113.257	18907.469	18907.469	0	0	0	0	0
416.6	19088.845	18864.897	18864.897	0	0	0	0	0
416.9	18984.715	18822.451	18822.451	0	0	0	0	0
417.2	18795.785	18780.131	18780.131	0	0	0	0	0
417.5	18828.84	18737.937	18737.937	0	0	0	0	0
417.8	18840.535	18695.867	18695.867	0	0	0	0	0
418.1	18782.053	18653.923	18653.923	0	0	0	0	0
418.4	18769.851	18612.102	18612.102	0	0	0	0	0
418.7	18613.335	18570.405	18570.405	0	0	0	0	0
419	18584.731	18528.831	18528.831	0	0	0	0	0
419.3	18552.05	18487.38	18487.38	0	0	0	0	0
419.6	18566.931	18446.05	18446.051	0	0	-0.00022121109	0	0
419.9	18504.373	18404.843	18404.843	0	0	-6.046093e-05	0	0
420.2	18492.037	18363.758	18363.758	0	0	-9.6387093e-06	0	0
420.5	18460.887	18322.792	18322.793	0	0	-0.0011073243	0	0
420.8	18342.01	18281.943	18281.949	0	0	-0.0060152039	0	0
421.1	18215.888	18241.217	18241.225	0	0	-0.0077900111	0	0
421.4	18196.94	18200.611	18200.62	0	0	-0.009096802	0	0
421.7	18206.098	18160.124	18160.135	0	0	-0.010590446	0	0
422	18295.73	18119.762	18119.768	0	0	-0.0055254537	0	0
422.3	18208.51	18079.514	18079.52	0	0	-0.0053390719	0	0
422.6	18113.663	18039.395	18039.389	0	0	0.005454146	0	0
422.9	18121.673	17999.391	17999.376	0	0	0.015411199	0	0
423.2	18124.601	17959.491	17959.48	0	0	0.010727329	0	0
423.5	18044.625	17919.722	17919.701	0	0	0.021065381	0	0
423.8	17906.168	17880.044	17880.038	0	0	0.0067442507	0	0
424.1	17864.845	17840.484	17840.49	0	0	-0.0062660789	0	0
424.4	17881.88	17801.054	17801.058	0	0	-0.0045074618	0	0
424.7	17919.385	17761.739	17761.741	0	0	-0.0021569998	0	0
425	17854.797	17722.558	17722.538	0	0	0.020006839	0	0
425.3	17885.44	17683.486	17683.45	0	0	0.035920878	0	0
425.6	17923.203	17644.542	17644.475	0	0	0.067312712	0	0
425.9	17844.375	17605.729	17605.613	0	0	0.11550113	0	0
426.2	17775.08	17567.023	17566.865	0	0	0.15866919	0	0
426.5	17716.091	17528.456	17528.229	0	0	0.2274493	0	0
426.8	17765.29	17489.977	17489.704	0	0	0.27225719	0	0
427.1	17578.141	17451.588	17451.292	0	0	0.29666287	0	0
427.4	17348.138	17413.364	17412.991	0	0	0.37312652	0	0
427.7	17328.807	17375.226	17374.8	0	0	0.42602806	0	0
428	17271.34	17337.257	17336.72	0	0	0.5372032	0	0
428.3	17228.113	17299.419	17298.75	0	0	0.669162	0	0
428.6	17285.705	17261.66	17260.89	0	0	0.77014023	0	0
428.9	17230.783	17224.034	17223.139	0	0	0.89509235	0	0
429.2	17234.975	17186.504	17185.497	0	0	1.0072235	0	0
429.5	17233.835	17149.123	17147.963	0	0	1.1601439	0	0
429.8	17336.817	17111.835	17110.538	0	0	1.2978359	0	0
430.1	17252.525	17074.657	17073.22	0	0	1.437177	0	0
430.4	17140.635	17037.595	17036.009	0	0	1.5858876	0	0
430.7	17093.34	17000.585	16998.906	0	0	1.6797675	0	0
431	17064.095	16963.765	16961.909	0	0	1.8563863	0	0
431.3	16997.861	16927	16925.018	0	0	1.9821847	0	0
431.6	16994.043	16890.395	16888.233	0	0	2.1621612	0	0
431.9	16907.713	16853.879	16851.553	0	0	2.3263161	0	0
432.2	16795.315	16817.451	16814.979	0	0	2.4722563	0	0
432.5	16785.525	16781.132	16778.509	0	0	2.623167	0	0
432.8	16908.727	16744.885	16742.143	0	0	2.7414312	0	0
433.1	16858.131	16708.744	16705.881	0	0	2.8622927	0	0
433.4	16805.238	16672.82	16669.723	0	0	3.0965112	0	0
433.7	16777.648	16636.944	16633.669	0	0	3.2751878	0	0
434	16758.451	16601.318	16597.716	0	0	3.6014306	0	0
434.3	16759.59	16565.704	16561.867	0	0	3.8371234	0	0
434.6	16652.665	16530.169	16526.119	0	0	4.049491	0	0
434.9	16583.628	16494.712	16490.474	0	0	4.2379227	0	0
435.2	16489.413	16459.347	16454.929	0	0	4.4176791	0	0
435.5	16484.963	16424.187	16419.486	0	0	4.7011757	0	0
435.8	16524.123	16389.066	16384.143	0	0	4.9222707	0	0
436.1	16441.86	16354.056	16348.901	0	0	5.1551222	0	0
436.4	16299.585	16319.173	16313.759	0	0	5.4144346	0	0
436.7	16303.785	16284.229	16278.716	0	0	5.513242	0	0
437	16367.358	16249.546	16243.773	0	0	5.7737964	0	0
437.3	16298.063	16214.897	16208.928	0	0	5.9691281	0	0
437.6	16188.593	16180.352	16174.182	0	0	6.1700694	0	0
437.9	16107.478	16145.927	16139.534	0	0	6.3930843	0	0
438.2	16086.875	16111.597	16104.984	0	0	6.6128663	0	0
438.5	15999.023	16077.338	16070.532	0	0	6.8059335	0	0
438.8	16027.761	16043.236	16036.177	0	0	7.0590329	0	0
439.1	15976.265	16009.146	16001.918	0	0	7.2276176	0	0
439.4	15934.943	15975.256	15967.757	0	0	7.4998563	0	0
439.7	15941.555	15941.298	15933.691	0	0	7.6075947	0	0
440	15834.88	15907.525	15899.721	0	0	7.8035347	0	0
440.3	15806.017	15873.767	15865.847	0	0	7.9203705	0	0
440.6	15778.685	15840.188	15832.068	0	0	8.1207759	0	0
440.9	15618.735	15806.697	15798.383	0	0	8.3138548	0	0
441.2	15520.078	15773.355	15764.793	0	0	8.5617124	0	0
441.5	15463.875	15740.053	15731.298	0	0	8.7546836	0	0
441.8	15451.415	15706.861	15697.896	0	0	8.965322	0	0
442.1	15576.015	15673.846	15664.588	0	0	9.2584136	0	0
442.4	15570.933	15641.011	15631.373	0	0	9.6381401	0	0
442.7	15540.548	15608.249	15598.25	0	0	9.9987847	0	0
443	15492.737	15575.615	15565.221	0	0	10.394281	0	0
443.3	15452.305	15543.104	15532.283	0	0	10.820066	0	0
443.6	15411.881	15510.698	15499.438	0	0	11.260549	0	0
443.9	15422.045	15478.28	15466.684	0	0	11.596298	0	0
444.2	15462.477	15445.907	15434.021	0	0	11.885541	0	0
444.5	15289.568	15413.572	15401.45	0	0	12.12261	0	0
444.8	15280.668	15381.263	15368.969	0	0	12.294415	0	0
445.1	15274.305	15349.091	15336.578	0	0	12.513034	0	0
445.4	15207.813	15317.04	15304.277	0	0	12.762899	0	0
445.7	15173.868	15285.049	15272.066	0	0	12.982557	0	0
446	15158.605	15253.272	15239.945	0	0	13.327153	0	0
446.3	15025.87	15221.521	15207.912	0	0	13.609033	0	0
446.6	15053.211	15189.939	15175.969	0	0	13.970166	0	0
446.9	14923.137	15158.457	15144.113	0	0	14.344066	0	0
447.2	14950.861	15127.181	15112.346	0	0	14.834237	0	0
447.5	14872.915	15096.066	15080.667	0	0	15.398428	0	0
447.8	14878.005	15065.178	15049.076	0	0	16.102145	0	0
448.1	14881.69	15034.418	15017.571	0	0	16.846361	0	0
448.4	14918.563	15003.731	14986.154	0	0	17.57735	0	0
448.7	14834.395	14973.032	14954.823	0	0	18.208815	0	0
449	14780.613	14942.456	14923.579	0	0	18.876886	0	0
449.3	14789.513	14912.04	14892.421	0	0	19.619392	0	0
449.6	14754.927	14881.768	14861.348	0	0	20.419711	0	0
449.9	14631.351	14851.629	14830.361	0	0	21.267792	0	0
450.2	14651.055	14821.567	14799.46	0	0	22.107393	0	0
450.5	14631.217	14791.686	14768.643	0	0	23.043264	0	0
450.8	14589.387	14761.994	14737.911	0	0	24.083709	0	0
451.1	14557.098	14732.505	14707.263	0	0	25.241892	0	0
451.4	14476.108	14703.353	14676.699	0	0	26.653762	0	0
451.7	14518.695	14674.488	14646.219	0	0	28.269383	0	0
452	14567.395	14645.904	14615.822	0	0	30.082146	0	0
452.3	14495.047	14617.67	14585.509	0	0	32.161081	0	0
452.6	14324.933	14589.793	14555.278	0	0	34.51488	0	0
452.9	14326.205	14562.483	14525.13	0	0	37.352389	0	0
453.2	14444.451	14535.9	14495.065	0	0	40.834806	0	0
453.5	14486.655	14510.5	14465.081	0	0	45.418605	0	0
453.8	14338.283	14487.138	14435.18	0	0	51.957987	0	0
454.1	14298.74	14467.793	14405.359	0	0	62.433213	0	0
454.4	14322.895	14456.018	14375.621	0	0	80.397961	0	0
454.7	14357.863	14457.729	14345.963	6128.6237	0	111.76643	0	0
455	14449.657	14482.513	14316.385	6238.5648	0	166.12753	0	0.0059594
455.3	14567.903	14546.927	14286.888	6288.1459	0	260.03815	0	0.0059594
455.6	14738.017	14681.025	14257.472	6337.6051	0	423.55298	0	0.0059594
455.9	15041.89	14927.37	14228.135	6324.7764	0	699.23549	0	0.035053569
456.2	15324.145	15321.445	14198.878	6373.5134	0	1122.5673	0	0.19395249
456.5	15810.343	15869.14	14169.7	6422.1306	0	1699.4406	0	0.35285142
456.8	16579.427	16557.096	14140.601	6470.6281	0	2416.4953	0	0.54655854
457.1	17340.76	17369.349	14111.581	6519.0064	0	3257.7684	0	0.80051063
457.4	18239.918	18283.423	14082.639	6567.2657	0	4200.7839	0	1.0544627
457.7	19322.283	19269.42	14053.776	6680.4301	0	5215.6441	0	1.3299939
458	20345.658	20292.158	14024.991	6663.4286	0	6267.1672	0	1.623231
458.3	21242.271	21313.712	13996.283	6711.3327	0	7317.4284	0	1.9164681
458.6	22300.855	22304.32	13967.653	6759.1191	0	8336.667	0	2.1302414
458.9	23294.985	23264.278	13939.101	6806.788	0	9325.1777	0	2.3149799
459.2	24213.981	24222.471	13910.625	6854.3397	0	10311.846	0	2.4997183
459.5	25201.747	25199.079	13882.226	6901.7745	0	11316.853	0	2.778996
459.8	26150.363	26161.997	13853.903	6949.0927	0	12308.094	0	3.0670004
460.1	27019.003	27028.443	13825.657	7051.1103	0	13202.786	0	3.3382958
460.4	27727.95	27711.267	13797.486	7034.2836	0	13913.781	0	3.4568232
460.7	28165.581	28170.964	13769.392	7017.4907	0	14401.572	0	3.5753506
461	28422.657	28407.8	13741.372	7000.7315	0	14666.428	0	3.646252
461.3	28399.651	28438.283	13713.428	6916.0152	0	14724.855	0	3.5957071
461.6	28308.23	28305.703	13685.559	6899.4832	0	14620.144	0	3.5451622
461.9	28123.617	28071.276	13657.764	6882.9844	0	14413.511	0	3.4379546
462.2	27780.843	27807.179	13630.044	6934.031	0	14177.135	0	3.2654992
462.5	27555.673	27610.442	13602.398	6917.4395	0	14008.044	0	3.0930437
462.8	27609.58	27586.704	13574.826	6900.8814	0	14011.877	0	3.10569
463.1	27813.39	27792.115	13547.328	6884.3564	0	14244.786	0	3.218935
463.4	28234.743	28219.352	13519.903	6867.8645	0	14699.449	0	3.33218
463.7	28832.565	28834.378	13492.552	6851.4057	0	15341.826	0	3.5752811
464	29519.271	29585.796	13465.273	6768.4163	0	16120.523	0	3.8447935
464.3	30405.711	30406.417	13438.067	6818.587	0	16968.35	0	4.1131224
464.6	31270.791	31237.573	13410.934	6802.227	0	17826.639	0	4.2985992
464.9	32085.39	32066.065	13383.873	6719.8062	0	18682.192	0	4.4840761
465.2	32922.373	32908.344	13356.884	6769.6051	0	19551.46	0	4.7101102
465.5	33657.388	33721.826	13329.966	6753.343	0	20391.86	0	5.1012705
465.8	34322.601	34354.737	13303.121	6671.4873	0	21051.616	0	5.4924308
466.1	34654.571	34610.372	13276.346	6720.9163	0	21334.026	0	5.6456644
466.4	34396.845	34365.865	13249.643	6639.4355	0	21116.223	0	5.4111656
466.7	33584.025	33642.736	13223.01	6688.6192	0	20419.726	0	5.1766668
467	32550.353	32536.129	13196.448	6598.2296	0	19339.682	0	4.82227
467.3	31172.001	31146.258	13169.956	6568.7173	0	17976.302	0	4.3749522
467.6	29521.3	29568.056	13143.535	6603.6102	0	16424.521	0	3.9276345
467.9	27837.037	27876.974	13117.183	6573.938	0	14759.791	0	3.4348215
468.2	26217.745	26144.527	13090.901	6544.3294	0	13053.625	0	2.9265574
468.5	24471.565	24460.025	13064.689	6451.2992	0	11395.336	0	2.4182932
468.8	22851.64	22914.934	13038.545	6422.1016	0	9876.3884	0	2.038508
469.1	21559.485	21567.893	13012.471	6455.8832	0	8555.422	0	1.668456
469.4	20490.728	20452.631	12986.465	6363.8937	0	7466.1652	0	1.3259654
469.7	19580.383	19592.997	12960.528	6397.2339	0	6632.4684	0	1.2005208
470	18948.865	18977.674	12934.66	6368.0033	0	6043.0142	0	1.0750762
470.3	18615.747	18565.946	12908.859	6338.8352	0	5657.0868	0	0.99805453
470.6	18287.978	18309.813	12883.126	6309.7293	0	5426.6865	0	1.0363253
470.9	18100.695	18144.041	12857.461	6280.6857	0	5286.5802	0	1.0745961
471.2	18034.711	18002.838	12831.864	6190.7572	0	5170.9747	0	1.0507194
471.5	17881.248	17865.175	12806.333	6162.1165	0	5058.8423	0	0.9592118
471.8	17734.905	17764.894	12780.87	6193.9264	0	4984.0245	0	0.86770416
472.1	17766.821	17742.523	12755.473	6165.13	0	4987.05	0	0.91101038
472.4	17756.773	17788.014	12730.143	6136.3951	0	5057.8715	0	1.0231577
472.7	17851.878	17835.008	12704.879	6107.7215	0	5130.1286	0	1.1353051
473	17804.708	17817.042	12679.681	6079.109	0	5137.3609	0	1.0806149
473.3	17763.261	17730.153	12654.549	6050.5576	0	5075.6037	0	0.99533786
473.6	17586.4	17625.984	12629.483	5963.3357	0	4996.5011	0	0.91331978
473.9	17545.46	17552.823	12604.483	5993.6372	0	4948.3403	0	0.94373547
474.2	17547.365	17511.838	12579.547	5965.268	0	4932.2908	0	0.97415116
474.5	17477.695	17472.144	12554.677	5936.9591	0	4917.4672	0	0.99084215
474.8	17380.303	17413.242	12529.872	5851.0731	0	4883.3705	0	0.95629426
475.1	17352.205	17341.056	12505.131	5881.7912	0	4835.9252	0	0.92174637
475.4	17247.693	17272.872	12480.454	5861.7467	0	4792.4174	0	0.89576774
475.7	17270.833	17222.08	12455.842	5841.7436	0	4766.2374	0	0.88294904
476	17191.623	17197.5	12431.294	5821.7817	0	4766.2057	0	0.87013035
476.3	17166.827	17205.567	12406.81	5745.2534	0	4798.7576	0	0.88729783
476.6	17283.293	17245.868	12382.389	5725.5654	0	4863.4796	0	0.9264064
476.9	17303.638	17305.36	12358.031	5762.1428	0	4947.3286	0	0.96551498
477.2	17322.577	17364.123	12333.737	5742.345	0	5030.3857	0	0.98977787
477.5	17438.785	17407.365	12309.506	5722.588	0	5097.859	0	1.0093671
477.8	17466.375	17427.366	12285.337	5702.8717	0	5142.0286	0	1.0289564
478.1	17391.107	17419.154	12261.232	5683.1959	0	5157.923	0	1.0154326
478.4	17326.52	17383.913	12237.188	5663.5607	0	5146.7255	0	0.99993184
478.7	17389.968	17327.285	12213.207	5643.9659	0	5114.0783	0	0.98372435
479	17263.455	17254.981	12189.287	5569.5138	0	5065.6939	0	0.962648
479.3	17135.045	17170.467	12165.43	5604.8972	0	5005.0369	0	0.94157165
479.6	17089.273	17074.36	12141.634	5530.9012	0	4932.7263	0	0.9181644
479.9	16970.137	16966.329	12117.899	5511.6544	0	4848.4296	0	0.8895656
480.2	16847.825	16846.383	12094.226	5492.4472	0	4752.1571	0	0.8609668
480.5	16681.777	16713.892	12070.613	5527.2406	0	4643.279	0	0.82025712
480.8	16612.491	16571.011	12047.062	5507.9261	0	4523.9495	0	0.76709055
481.1	16414.395	16426.077	12023.571	5488.6513	0	4402.5063	0	0.71392397
481.4	16271.238	16290.443	12000.14	5469.416	0	4290.3032	0	0.68585348
481.7	16187.578	16169.161	11976.77	5397.0015	0	4192.3916	0	0.66980819
482	16042.508	16060.749	11953.459	5378.0297	0	4107.2901	0	0.6537629
482.3	15979.567	15962.901	11930.209	5359.0969	0	4032.6925	0	0.63040889
482.6	15880.653	15876.631	11907.018	5392.869	0	3969.6131	0	0.60585674
482.9	15761.775	15806.463	11883.886	5373.8302	0	3922.5768	0	0.58265543
483.2	15763.938	15757.25	11860.814	5354.8305	0	3896.4359	0	0.59007315
483.5	15770.417	15728.536	11837.801	5335.8698	0	3890.7348	0	0.59749088
483.8	15699.093	15715.547	11814.847	5316.9479	0	3900.7008	0	0.60721492
484.1	15687.647	15711.966	11791.951	5298.0647	0	3920.0155	0	0.62486694
484.4	15684.977	15711.659	11769.114	5227.6496	0	3942.5446	0	0.64251896
484.7	15731.765	15708.432	11746.335	5260.4142	0	3962.0969	0	0.64977752
485	15717.658	15698.892	11723.615	5241.6468	0	3975.2774	0	0.6419835
485.3	15635.52	15685.506	11700.952	5226.4037	0	3984.5536	0	0.63418947
485.6	15689.303	15674.149	11678.347	5214.1782	0	3995.8015	0	0.63017713
485.9	15691.848	15670.232	11655.8	5201.9764	0	4014.4317	0	0.62877594
486.2	15603.231	15676.814	11633.31	5189.7981	0	4043.5045	0	0.62737476
486.5	15706.595	15694.233	11610.877	5177.6435	0	4083.3556	0	0.643702
486.8	15771.565	15717.752	11588.502	5115.0361	0	4129.2499	0	0.6651866
487.1	15695.025	15738.059	11566.183	5103.0447	0	4171.8761	0	0.6866712
487.4	15722.491	15749.41	11543.921	5141.3202	0	4205.4886	0	0.66361036
487.7	15773.47	15757.342	11521.715	5079.1316	0	4235.626	0	0.63858428
488	15776.905	15778.286	11499.566	5067.2096	0	4278.7197	0	0.62164785
488.3	15827.128	15824.009	11477.473	5105.2071	0	4346.5359	0	0.65405829
488.6	15879.131	15889.919	11455.436	5093.2158	0	4434.4829	0	0.68646872
488.9	15932.905	15962.367	11433.455	5031.5816	0	4528.9118	0	0.7154241
489.2	16042.757	16031.389	11411.529	5019.7515	0	4619.8594	0	0.73716891
489.5	16123.881	16091.214	11389.659	5007.9441	0	4701.5552	0	0.75891373
489.8	16126.551	16136.619	11367.844	5045.4816	0	4768.7753	0	0.76574176
490.1	16140.657	16164.001	11346.084	5033.6054	0	4817.9168	0	0.75806737
490.4	16144.6	16176.55	11324.379	4972.6581	0	4852.1702	0	0.75039298
490.7	16244.663	16181.805	11302.729	4960.9414	0	4879.0756	0	0.74440051
491	16176.898	16186.144	11281.134	4949.2472	0	4905.0107	0	0.7391632
491.3	16174.735	16192.484	11259.593	4986.329	0	4932.8912	0	0.73392588
491.6	16206.775	16201.994	11238.106	4925.9264	0	4963.8881	0	0.73826137
491.9	16238.94	16216.299	11216.673	4914.2995	0	4999.6256	0	0.74398646
492.2	16217.838	16236.152	11195.294	4951.1098	0	5040.8583	0	0.75035302
492.5	16269.965	16259.591	11173.969	4891.1129	0	5085.6218	0	0.76746438
492.8	16293.23	16281.752	11152.697	4927.7429	0	5129.0542	0	0.78457573
493.1	16319.547	16296.261	11131.479	4916.0932	0	5164.7815	0	0.79430568
493.4	16295.517	16300.824	11110.314	4904.4658	0	5190.5099	0	0.78058884
493.7	16293.871	16301.802	11089.202	4892.8607	0	5212.5998	0	0.76687199
494	16319.04	16310.015	11068.143	4833.5348	0	5241.8714	0	0.7701137
494.3	16333.787	16330.131	11047.137	4869.7173	0	5282.9939	0	0.79653209
494.6	16412.997	16356.145	11026.183	4810.6579	0	5329.9615	0	0.82295048
494.9	16372.823	16378.006	11005.282	4799.2523	0	5372.7243	0	0.83235484
495.2	16367.607	16391.309	10984.433	4787.8686	0	5406.876	0	0.83068031
495.5	16388.967	16397.424	10963.636	4776.5068	0	5433.7874	0	0.82900577
495.8	16415.16	16399.559	10942.891	4812.2459	0	5456.6678	0	0.82631064
496.1	16446.185	16401.534	10922.198	4753.8482	0	5479.3359	0	0.82334213
496.4	16445.545	16409.221	10901.556	4789.4111	0	5507.6648	0	0.82037362
496.7	16380.067	16424.273	10880.966	4778.0264	0	5543.3069	0	0.86113904
497	16425.208	16436.562	10860.427	4720.0227	0	5576.1347	0	0.9031721
497.3	16436.778	16429.291	10839.94	4755.3224	0	5589.3516	0	0.93121344
497.6	16396.595	16396.575	10819.503	4743.9944	0	5577.0718	0	0.88293628
497.9	16425.591	16357.557	10799.117	4732.6788	0	5558.4399	0	0.83465912
498.2	16351.205	16344.364	10778.781	4721.3847	0	5565.583	0	0.84275088
498.5	16328.447	16366.114	10758.497	4710.1122	0	5607.617	0	0.96123178
498.8	16330.735	16388.348	10738.262	4698.8612	0	5650.0854	0	1.0797127
499.1	16388.46	16364.012	10718.078	4641.7526	0	5645.9341	0	1.084569
499.4	16353.243	16284.912	10697.944	4676.4234	0	5586.9684	0	0.98501348
499.7	16201.818	16192.321	10677.859	4665.2366	0	5514.4616	0	0.88545799
500	16098.703	16135.437	10657.825	4654.0711	0	5477.6127	0	0.928464
500.3	16093.363	16119.244	10637.84	4642.9268	0	5481.4046	0	1.0313458
500.6	16083.448	16101.721	10617.904	4586.4633	0	5483.817	0	1.1342277
500.9	16077.85	16041.001	10598.018	4620.7019	0	5442.9832	0	1.0651948
501.2	15959.738	15942.029	10578.18	4564.4946	0	5363.8487	0	0.97433149
501.5	15864.757	15850.066	10558.392	4553.5416	0	5291.6737	0	0.89387158
501.8	15775.25	15802.374	10538.652	4587.5228	0	5263.721	0	0.95073654
502.1	15753.383	15795.806	10518.962	4531.698	0	5276.8447	0	1.0076015
502.4	15814.917	15801.158	10499.319	4565.5084	0	5301.8389	0	1.0497467
502.7	15810.85	15795.7	10479.725	4509.9374	0	5315.9749	0	1.0485503
503	15830.937	15776.432	10460.18	4499.088	0	5316.2524	0	1.047354
503.3	15703.925	15750.646	10440.682	4488.2593	0	5309.9642	0	1.0423508
503.6	15708.758	15724.643	10421.233	4521.7299	0	5303.411	0	1.0324357
503.9	15686.633	15702.879	10401.831	4510.8371	0	5301.0482	0	1.0225205
504.2	15720.711	15687.91	10382.476	4499.965	0	5305.434	0	1.0419314
504.5	15683.838	15675.826	10363.17	4445.1495	0	5312.6566	0	1.0793378
504.8	15661.713	15651.986	10343.91	4434.423	0	5308.0761	0	1.1167441
505.1	15549.955	15604.125	10324.698	4467.4723	0	5279.4272	0	1.0711784
505.4	15575.258	15539.674	10305.533	4413.0312	0	5234.1412	0	1.0052336
505.7	15500.115	15488.401	10286.415	4445.9129	0	5201.9862	0	0.9392888
506	15452.563	15477.363	10267.343	4391.7202	0	5210.0197	0	0.9962115
506.3	15532.405	15505.876	10248.318	4381.095	0	5257.5577	0	1.0548895
506.6	15517.791	15550.03	10229.34	4413.7267	0	5320.69	0	1.1095258
506.9	15587.211	15581.995	10210.408	4403.0385	0	5371.5874	0	1.144291
507.2	15614.801	15579.956	10191.522	4392.3705	0	5388.4336	0	1.1790561
507.5	15519.313	15531.41	10172.682	4381.7227	0	5358.728	0	1.1612274
507.8	15470.745	15445.55	10153.889	4328.2695	0	5291.6616	0	1.0466259
508.1	15301.77	15364.906	10135.141	4360.4874	0	5229.7659	0	0.93202446
508.4	15350.845	15337.862	10116.438	4307.2788	0	5221.424	0	0.95110739
508.7	15396.617	15372.371	10097.781	4296.8132	0	5274.5893	0	1.0862846
509	15476.593	15422.823	10079.17	4286.3673	0	5343.6535	0	1.2214619
509.3	15428.791	15432.656	10060.604	4318.2569	0	5372.0524	0	1.1953004
509.6	15324.02	15388.935	10042.083	4265.5347	0	5346.8522	0	1.1058688
509.9	15295.54	15327.341	10023.606	4297.261	0	5303.7346	0	1.0164372
510.2	15351.103	15289.269	10005.175	4286.7927	0	5284.0942	0	1.0449096
510.5	15334.575	15283.449	9986.7884	4234.4329	0	5296.6607	0	1.0862778
510.8	15290.325	15293.744	9968.4464	4265.9153	0	5325.2974	0	1.1249744
511.1	15265.405	15301.913	9950.1487	4255.5061	0	5351.7639	0	1.1347298
511.4	15259.05	15298.725	9931.8954	4245.1165	0	5366.83	0	1.1444852
511.7	15310.421	15282.658	9913.6862	4234.7465	0	5368.9718	0	1.1539433
512	15318.048	15252.631	9895.521	4182.986	0	5357.1103	0	1.1625875
512.3	15197.008	15205.522	9877.3998	4172.7546	0	5328.1222	0	1.1712318
512.6	15078.131	15138.739	9859.3223	4162.377	0	5279.4172	0	1.1426166
512.9	15061.595	15059.979	9841.2884	4192.7774	0	5218.6908	0	1.0685917
513.2	15043.545	14992.394	9823.298	4181.9892	0	5169.0955	0	0.99456673
513.5	15009.601	14961.085	9805.3511	4130.3258	0	5155.7338	0	1.0287042
513.8	14941.827	14964.457	9787.4473	4119.6824	0	5177.0095	0	1.1253356
514.1	14872.79	14965.811	9769.5867	4149.7469	0	5196.2244	0	1.2219669
514.4	14840.625	14922.98	9751.769	4139.04	0	5171.2108	0	1.1701586
514.7	14857.918	14829.867	9733.9942	4128.3533	0	5095.8729	0	1.0850793
515	14795.867	14717.272	9716.2622	4077.3096	0	5001.0103	0	1
515.3	14696.063	14619.234	9698.5727	4066.7664	0	4920.6608	0	1
515.6	14739.29	14547.075	9680.9257	4056.243	0	4866.1488	0	1
515.9	14721.365	14492.787	9663.3211	4085.808	0	4829.4661	0	1
516.2	14681.565	14446.312	9645.7586	4075.2218	0	4800.5534	0	1
516.5	14586.335	14403.062	9628.2383	4024.7919	0	4774.8242	0	1
516.8	14498.358	14363.269	9610.7599	4014.3477	0	4752.5092	0	1
517.1	14407.703	14326.973	9593.3234	4043.5828	0	4733.6497	0	1
517.4	14351.757	14291.646	9575.9286	4033.0761	0	4715.717	0	1
517.7	14346.168	14255.607	9558.5754	3983.133	0	4697.0312	0	1
518	14286.405	14219.752	9541.2637	4012.1222	0	4678.4881	0	1
518.3	14310.817	14184.376	9523.9933	4001.6748	0	4660.3829	0	1
518.6	14248.775	14148.714	9506.7641	3952.0943	0	4641.9494	0	1
518.9	14190.16	14113.57	9489.5761	3980.8389	0	4623.9943	0	1
519.2	14167.145	14079.321	9472.429	3931.499	0	4606.8918	0	1
519.5	14177.068	14045.548	9455.3228	3960.0813	0	4590.2253	0	1
519.8	14111.457	14011.138	9438.2574	3949.7318	0	4572.8805	0	1
520.1	14067.972	13975.699	9421.2325	3900.7511	0	4554.4668	0	1
520.4	13973.125	13940.5	9404.2482	3890.5402	0	4536.252	0	1
520.7	13917.437	13906.871	9387.3042	3918.7996	0	4519.5665	0	1
521	13937.017	13874.196	9370.4005	3870.176	0	4503.7955	0	1
521.3	13923.792	13841.95	9353.537	3860.0225	0	4488.4131	0	1
521.6	13851.702	13810.556	9336.7134	3888.0413	0	4473.8429	0	1
521.9	13756.347	13779.316	9319.9298	3839.7727	0	4459.3862	0	1
522.2	13722.527	13748.232	9303.186	3829.6763	0	4445.0455	0	1
522.5	13691.253	13717.9	9286.4818	3857.4557	0	4431.4181	0	1
522.8	13546.432	13687.367	9269.8172	3809.5402	0	4417.5499	0	1
523.1	13552.288	13656.56	9253.192	3799.5004	0	4403.3683	0	1
523.4	13533.465	13627.204	9236.6062	3789.4795	0	4390.5979	0	1
523.7	13465.575	13599.465	9220.0595	3779.4773	0	4379.4051	0	1
524	13467.863	13573.412	9203.552	3769.4939	0	4369.8597	0	1
524.3	13483.758	13547.889	9187.0834	3796.7985	0	4360.8051	0	1
524.6	13394.242	13522.178	9170.6537	3749.583	0	4351.5248	0	1
524.9	13273.585	13495.79	9154.2627	3776.7304	0	4341.5273	0	1
525.2	13229.85	13468.661	9137.9104	3766.7246	0	4330.7506	0	1
525.5	13264.302	13440.123	9121.5966	3756.7374	0	4318.5265	0	1
525.8	13247.392	13410.882	9105.3212	3709.9842	0	4305.5607	0	1
526.1	13239.765	13382.759	9089.0841	3700.1307	0	4293.6748	0	1
526.4	13203.657	13357.098	9072.8852	3726.8878	0	4284.2127	0	1
526.7	13235.315	13332.138	9056.7244	3716.9751	0	4275.4135	0	1
527	13170.095	13306.659	9040.6015	3707.0809	0	4266.0575	0	1
527.3	13133.347	13280.651	9024.5165	3697.2051	0	4256.1348	0	1
527.6	13112.495	13254.949	9008.4693	3687.3478	0	4246.48	0	1
527.9	13162.593	13229.9	8992.4596	3677.5089	0	4237.4405	0	1
528.2	13157.128	13205.693	8976.4875	3667.6883	0	4229.2052	0	1
528.5	13111.738	13182.436	8960.5528	3657.8861	0	4221.8831	0	1
528.8	12986.115	13161.01	8944.6554	3648.1021	0	4216.3545	0	1
529.1	13080.588	13144.021	8928.7952	3638.3364	0	4215.2262	0	1
529.4	13130.295	13136.319	8912.9721	3592.949	0	4223.3465	0	1
529.7	13184.335	13145.226	8897.186	3618.8595	0	4248.04	0	1
530	13242.942	13181.697	8881.4367	3609.1483	0	4300.2601	0	1
530.3	13409.372	13268.603	8865.7243	3564.0975	0	4402.8788	0	1
530.6	13636.838	13450.596	8850.0484	3554.5161	0	4600.5476	0	1
530.9	13931.677	13773.362	8834.4092	3545.0559	0	4938.9529	0	1
531.2	14243.943	14212.516	8818.8063	3572.1512	5569.7936	5393.7096	0.668453	1
531.5	14504.837	14629.386	8803.2399	3564.0899	5559.4885	5826.1458	0.668453	1
531.8	14840.367	14927.183	8787.7096	3556.0431	5549.2015	6139.4732	0.668453	1
532.1	15126.947	15140.612	8772.2155	3513.1521	5484.7369	6368.3964	0.70839588	1
532.4	15351.868	15328.667	8756.7574	3505.2122	5474.5844	6571.9096	0.79863722	1
532.7	15510.155	15497.969	8741.3353	3497.2867	5464.4496	6756.6333	0.88887855	1
533	15646.707	15623.216	8725.9489	3524.0013	5508.2331	6897.2666	0.95533764	1
533.3	15678.365	15686.999	8710.5983	3481.4786	5444.2332	6976.4002	0.93677524	1
533.6	15692.097	15701.765	8695.2833	3473.596	5434.1515	7006.4821	0.91821284	1
533.9	15679.637	15696.446	8680.0038	3500.1218	5477.6943	7016.4421	0.89965043	1
534.2	15689.685	15689.451	8664.7598	3492.1907	5467.5503	7024.691	0.90123019	1
534.5	15714.347	15688.447	8649.551	3484.2738	5457.4239	7038.8958	0.90292061	1
534.8	15722.74	15700.212	8634.3774	3442.2076	5394.0004	7065.8344	0.90461103	1
535.1	15704.557	15731.76	8619.239	3468.483	5437.2241	7112.5214	0.92994907	1
535.4	15755.928	15781.564	8604.1355	3460.609	5427.1507	7177.4283	0.96233107	1
535.7	15866.537	15842.934	8589.0669	3418.8146	5364.0705	7253.8668	0.99471308	1
536	15902.271	15911.067	8574.0332	3444.9035	5407.0563	7337.0335	1.0213881	1
536.3	15985.548	15985.503	8559.0342	3437.0719	5397.0354	7426.4693	1.0433264	1
536.6	16087.765	16070.276	8544.0697	3395.5479	5334.2967	7526.2065	1.0652647	1
536.9	16200.795	16174.74	8529.1398	3421.4512	5377.0458	7645.6005	1.103021	1
537.2	16270.09	16300.822	8514.2443	3380.1066	5314.5337	7786.5782	1.1740219	1
537.5	16388.077	16436.037	8499.383	3405.8867	5357.1257	7936.6541	1.2450228	1
537.8	16613.381	16558.574	8484.556	3398.1254	5347.1916	8074.0183	1.3123108	1
538.1	16660.925	16645.491	8469.7631	3390.3781	5337.2748	8175.7282	1.3455641	1
538.4	16652.283	16679.638	8455.0042	3382.6448	5327.3751	8224.6333	1.3788174	1
538.7	16670.715	16645.292	8440.2793	3374.9253	5317.4927	8205.013	1.4120706	1
539	16495.767	16533.81	8425.5881	3334.1151	5255.6558	8108.2217	1.3328358	1
539.3	16389.101	16364.205	8410.9307	3326.498	5245.9024	7953.2741	1.2374307	1
539.6	16195.205	16175.599	8396.3069	3351.8502	5287.9483	7779.2921	1.1420257	1
539.9	15991.137	15997.725	8381.7167	3311.3049	5226.4463	7616.0082	1.10247	1
540.2	15840.22	15837.257	8367.1599	3303.7288	5216.7435	7470.0969	1.0929509	1
540.5	15660.823	15678.663	8352.6364	3296.1663	5207.0576	7326.0269	1.0834318	1
540.8	15487.531	15498.915	8338.1462	3288.6174	5197.3885	7160.7687	1.0314253	1
541.1	15332.92	15291.291	8323.6891	3313.6671	5239.0482	6967.6016	0.92222422	1
541.4	15053.335	15077.216	8309.2651	3273.5602	5178.1005	6767.9509	0.81302316	1
541.7	14947.808	14895.857	8294.874	3266.0518	5168.0311	6600.983	0.72569192	1
542	14788.24	14778.348	8280.5158	3258.5569	5157.4713	6497.8326	0.72465781	1
542.3	14638.72	14729.108	8266.1904	3283.3665	5197.8452	6462.9171	0.72362371	1
542.6	14742.601	14738.094	8251.8977	3275.8252	5187.2201	6486.1966	0.7225896	1
542.9	14868.847	14799.065	8237.6376	3236.1527	5125.9034	6561.4275	0.78040736	1
543.2	14935.597	14905.496	8223.41	3260.7832	5166.0258	6682.0865	0.83954024	1
543.5	15012.271	15045.143	8209.2147	3221.2834	5104.9505	6835.9282	0.89867313	1
543.8	15171.198	15206.115	8195.0518	3245.7951	5144.9061	7011.0634	0.97174378	1
544.1	15394.971	15378.325	8180.9212	3206.4672	5084.0713	7197.4037	1.0493593	1
544.4	15591.785	15552.936	8166.8226	3199.079	5073.6591	7386.1136	1.1269749	1
544.7	15743.717	15721.258	8152.7561	3191.7041	5063.2653	7568.5018	1.202878	1
545	15858.785	15869.624	8138.7216	3184.3423	5052.8898	7730.902	1.2772629	1
545.3	15928.971	15977.844	8124.7189	3176.9936	5042.5324	7853.1252	1.3516477	1
545.6	16024.708	16021.807	8110.748	3201.1513	5081.9907	7911.059	1.3837023	1
545.9	16002.075	15990.861	8096.8088	3162.3358	5021.8722	7894.052	1.3197577	1
546.2	15976.007	15906.064	8082.9011	3155.0264	5011.5693	7823.1628	1.2558132	1
546.5	15852.048	15805.686	8069.025	3147.7302	5001.2844	7736.661	1.1968308	1
546.8	15658.918	15712.011	8055.1803	3171.6538	5040.4138	7656.8302	1.1934252	1
547.1	15553.765	15618.722	8041.3669	3164.3123	5030.0651	7577.3549	1.1900195	1
547.4	15499.475	15506.008	8027.5848	3125.9195	4970.5377	7478.4234	1.1866139	1
547.7	15444.295	15363.838	8013.8338	3149.6686	5009.422	7350.0045	1.1083181	1
548	15229.297	15201.61	8000.1139	3142.3664	4999.1276	7201.4965	1.0176202	1
548.3	15043.67	15046.735	7986.425	3135.0771	4988.8512	7060.3097	0.92692234	1
548.6	14911.95	14927.29	7972.7669	3097.0196	4929.7929	6954.5234	0.9100606	1
548.9	14852.071	14850.673	7959.1397	3120.5376	4968.3522	6891.5333	0.93584561	1
549.2	14747.807	14795.702	7945.5431	3082.6468	4909.5273	6850.1585	0.96163062	1
549.5	14802.48	14736.441	7931.9773	3075.4797	4899.4211	6804.4641	0.95173698	1
549.8	14685	14665.41	7918.4419	3098.8252	4937.7381	6746.9683	0.8904661	1
550.1	14594.727	14600.782	7904.937	3061.1836	4879.2616	6695.8447	0.82919522	1
550.4	14549.337	14574.003	7891.4625	3084.4147	4917.4178	6682.5403	0.79460005	1
550.7	14604.268	14600.988	7878.0183	3077.2287	4907.2842	6722.9695	0.87690724	1
551	14697.843	14659.764	7864.6043	3070.0554	4897.1683	6795.1594	0.95921444	1
551.3	14725.815	14706.973	7851.2204	3032.7437	4839.1535	6855.7524	1.0415216	1
551.6	14695.048	14712.398	7837.8666	3055.7471	4876.9896	6874.531	0.99812904	1
551.9	14666.693	14681.839	7824.5427	3018.5995	4819.2043	6857.2967	0.94973701	1
552.2	14655.755	14648.428	7811.2487	3011.5462	4809.2558	6837.1793	0.90134499	1
552.5	14681.315	14643.049	7797.9844	3004.5055	4799.3246	6845.0644	0.92862756	1
552.8	14665.678	14668.64	7784.7499	2997.4773	4789.4107	6883.8898	0.98281665	1
553.1	14698.857	14700.674	7771.545	3020.1984	4826.8497	6929.1287	1.0370057	1
553.4	14707.891	14708.425	7758.3697	3013.2985	4817.1462	6950.0557	1.0511137	1
553.7	14687.795	14677.616	7745.2238	2977.3264	4760.4129	6932.3922	1.0272725	1
554	14622.575	14614.817	7732.1072	2971.035	4750.9379	6882.7097	1.0034314	1
554.3	14559.385	14531.38	7719.02	2994.2387	4788.4437	6812.3604	0.97229783	1
554.6	14430.46	14435.341	7705.962	2958.485	4732.0369	6729.3793	0.9232774	1
554.9	14325.057	14339.603	7692.9331	2981.5874	4769.3912	6646.6704	0.87425697	1
555.2	14261.485	14260.819	7679.9333	2945.9787	4713.2011	6580.8858	0.82995539	1
555.5	14237.971	14209.503	7666.9624	2968.9801	4750.4044	6542.5405	0.85289739	1
555.8	14203.385	14178.152	7654.0205	2933.5158	4694.4302	6524.1316	0.87583939	1
556.1	14122.137	14147.833	7641.1073	2927.3006	4685.0691	6506.7258	0.89878138	1
556.4	14146.292	14104.614	7628.2229	2921.0962	4675.724	6476.3906	0.87358402	1
556.7	14032.755	14049.186	7615.3672	2914.9026	4666.3951	6433.8189	0.83932146	1
557	13980.885	13993.731	7602.54	2908.7198	4657.0822	6391.1909	0.8050589	1
557.3	13979.105	13949.348	7589.7413	2931.4202	4693.8356	6359.6069	0.7979669	1
557.6	13945.793	13917.378	7576.971	2896.3863	4638.5045	6340.4072	0.80770622	1
557.9	13887.435	13891.756	7564.2291	2890.2356	4629.2397	6327.527	0.81744554	1
558.2	13855.778	13865.428	7551.5154	2884.0955	4619.9908	6313.9124	0.81796972	1
558.5	13865.435	13834.275	7538.8299	2877.9662	4610.7578	6295.4452	0.80428721	1
558.8	13829.327	13799.894	7526.1725	2871.8474	4601.5407	6273.7212	0.79060471	1
559.1	13725.455	13767.133	7513.5431	2865.7393	4592.3395	6253.5899	0.77723346	1
559.4	13731.81	13739.799	7500.9417	2888.0924	4628.5735	6238.8568	0.7653884	1
559.7	13822.083	13722.368	7488.3682	2853.5548	4573.9844	6233.9997	0.75354333	1
560	13728.757	13723.607	7475.8224	2847.4784	4564.8305	6247.785	0.74169827	1
560.3	13731.685	13750.261	7463.3044	2869.6839	4600.8439	6286.9566	0.77870753	1
560.6	13787.622	13794.992	7450.814	2863.5689	4591.6324	6344.178	0.81854074	1
560.9	13857.807	13842.108	7438.3512	2829.3122	4537.4631	6403.7565	0.85837394	1
561.2	13887.685	13879.982	7425.9159	2851.3708	4573.2568	6454.0661	0.87628531	1
561.5	13963.593	13904.124	7413.508	2817.2537	4519.2964	6490.6156	0.88572686	1
561.8	13930.405	13915.456	7401.1275	2811.2401	4510.2364	6514.3284	0.89516842	1
562.1	13911.59	13918.033	7388.7742	2805.2369	4501.1919	6529.259	0.89200047	1
562.4	13946.175	13915.997	7376.4481	2827.1008	4536.6944	6539.5484	0.87608443	1
562.7	13895.187	13915.216	7364.1491	2821.0595	4527.5929	6551.0668	0.86016839	1
563	13912.863	13924.323	7351.8772	2815.0287	4518.507	6572.4453	0.85712964	1
563.3	14028.687	13949.586	7339.6323	2809.0083	4509.4367	6609.9534	0.88834448	1
563.6	14011.012	13990.582	7327.4142	2775.3762	4456.2015	6663.168	0.91955932	1
563.9	14054.248	14044.379	7315.223	2769.435	4447.2495	6729.1558	0.95111788	1
564.2	14096.452	14106.495	7303.0585	2763.504	4438.313	6803.437	0.98932177	1
564.5	14162.063	14168.569	7290.9207	2785.0303	4473.3104	6877.6484	1.0275257	1
564.8	14269.121	14217.185	7278.8095	2779.0617	4464.3174	6938.3755	1.0657295	1
565.1	14279.925	14242.347	7266.7249	2773.1033	4455.3398	6975.6217	1.0563886	1
565.4	14248.01	14249.131	7254.6667	2767.1552	4446.3776	6994.4642	1.036972	1
565.7	14238.478	14255.903	7242.6348	2734.0023	4393.8588	7013.2685	1.0175554	1
566	14287.677	14280.439	7230.6294	2755.2898	4428.499	7049.8096	1.0444917	1
566.3	14390.917	14321.728	7218.6501	2749.3724	4419.2946	7103.0776	1.1021894	1
566.6	14385.453	14360.323	7206.697	2716.423	4366.7696	7153.6263	1.1598872	1
566.9	14346.293	14373.796	7194.7701	2737.5681	4400.8743	7179.0256	1.1757346	1
567.2	14358.495	14353.123	7182.8691	2731.6813	4391.6878	7170.2534	1.1224382	1
567.5	14339.68	14313.425	7170.9942	2725.8045	4382.5171	7142.4307	1.0691418	1
567.8	14325.565	14284.228	7159.1451	2693.1248	4330.411	7125.0828	1.0313407	1
568.1	14292.127	14287.039	7147.3218	2714.0813	4364.2227	7139.7174	1.0793178	1
568.4	14316.798	14315.306	7135.5243	2708.2348	4355.0991	7179.7819	1.1272948	1
568.7	14342.857	14347.203	7123.7525	2675.7562	4303.3054	7223.4509	1.1752718	1
569	14398.678	14367.455	7112.0063	2669.9865	4294.3011	7255.4489	1.1811724	1
569.3	14384.687	14370.685	7100.2856	2690.7556	4327.8218	7270.3989	1.1838553	1
569.6	14396.008	14355.421	7088.5905	2684.9492	4318.7605	7266.8301	1.1865383	1
569.9	14333.708	14321.898	7076.9207	2652.737	4267.3807	7244.9776	1.1741283	1
570.2	14267.59	14276.886	7065.2762	2647.0069	4258.4379	7211.6101	1.1554002	1
570.5	14217.492	14230.452	7053.6571	2641.2866	4249.5103	7176.7949	1.1366722	1
570.8	14200.84	14189.296	7042.0631	2635.5762	4240.598	7147.2331	1.1281671	1
571.1	14218.382	14156.08	7030.4942	2629.8755	4231.701	7125.5859	1.1306981	1
571.4	14154.435	14129.133	7018.9505	2624.1847	4222.8191	7110.1824	1.1332291	1
571.7	14097.983	14103.429	7007.4317	2644.5827	4255.7633	7095.9973	1.1307191	1
572	14053.483	14074.57	6995.9379	2638.8555	4246.8252	7078.6322	1.1136225	1
572.3	14078.02	14045.487	6984.4689	2633.1382	4237.9023	7061.0181	1.096526	1
572.6	14040.765	14027.326	6973.0247	2601.5186	4187.4433	7054.3017	1.0813021	1
572.9	14067.847	14027.717	6961.6053	2621.7329	4220.1021	7066.1116	1.1213201	1
573.2	14027.165	14036.583	6950.2105	2616.0449	4211.2248	7086.3729	1.1613382	1
573.5	14036.822	14030.449	6938.8403	2610.3666	4202.3626	7091.6088	1.2013563	1
573.8	14009.748	13992.087	6927.4946	2604.6981	4193.5156	7064.5925	1.1597661	1
574.1	13954.693	13926.067	6916.1735	2599.0392	4184.6836	7009.8934	1.0988768	1
574.4	13876.755	13857.733	6904.8767	2567.8096	4134.8306	6952.8565	1.0379874	1
574.7	13809.365	13813.748	6893.6042	2562.2251	4126.114	6920.1438	1.0385867	1
575	13825.518	13800.031	6882.356	2556.6501	4117.4124	6917.6754	1.0828603	1
575.3	13799.192	13796.897	6871.1321	2576.5005	4149.5061	6925.7649	1.1271339	1
575.6	13794.617	13775.886	6859.9322	2570.8899	4140.7491	6915.9534	1.131479	1
575.9	13705.493	13725.026	6848.7565	2565.2888	4132.007	6876.2699	1.0650416	1
576.2	13721.895	13661.538	6837.6048	2559.6974	4123.2798	6823.9333	0.99860423	1
576.5	13669.635	13617.14	6826.477	2528.9176	4074.1257	6790.6629	0.94942719	1
576.8	13583.687	13613.099	6815.3731	2548.5431	4105.87	6797.7259	1.0093355	1
577.1	13621.575	13642.32	6804.293	2517.8908	4056.914	6838.0269	1.0692438	1
577.4	13688.707	13680.265	6793.2366	2512.3916	4048.3301	6887.0283	1.1291521	1
577.7	13770.205	13707.394	6782.204	2506.9017	4039.7608	6925.1898	1.1359949	1
578	13730.288	13715.678	6771.195	2526.3485	4071.2275	6944.4831	1.1377536	1
578.3	13732.7	13703.247	6760.2096	2520.8235	4062.6036	6943.0372	1.1395122	1
578.6	13637.853	13672.03	6749.2477	2490.4881	4014.1401	6922.7827	1.1226805	1
578.9	13641.92	13628.813	6738.3092	2509.8017	4045.3998	6890.5042	1.0974389	1
579.2	13616.875	13581.253	6727.3941	2504.3049	4036.8198	6853.8591	1.0721974	1
579.5	13573.897	13535.762	6716.5023	2498.8175	4028.2543	6819.2597	1.0564253	1
579.8	13488.965	13498.162	6705.6338	2468.7336	3980.1817	6792.528	1.0515712	1
580.1	13463.413	13472.574	6694.7884	2487.8706	4011.167	6777.7856	1.046717	1
580.4	13468.877	13458.25	6683.9662	2482.4112	4002.4621	6774.2839	1.0471526	1
580.7	13516.937	13451.317	6673.1671	2476.961	3993.6423	6778.15	1.0642987	1
581	13438.742	13445.059	6662.391	2471.6637	3984.8375	6782.6678	1.0814449	1
581.3	13400.223	13432.098	6651.6379	2466.3982	3976.0477	6780.4605	1.0981136	1
581.6	13445.737	13407.924	6640.9076	2436.8501	3928.2608	6767.0168	1.0861349	1
581.9	13423.87	13375.189	6630.2002	2431.6537	3919.5861	6744.9888	1.0741561	1
582.2	13298.505	13338.077	6619.5155	2450.655	3949.768	6718.5611	1.0621774	1
582.5	13347.33	13296.396	6608.8535	2445.4249	3941.0379	6687.5424	1.0489551	1
582.8	13241.295	13249.132	6598.2142	2416.117	3893.6505	6650.9174	1.0354069	1
583.1	13190.183	13198.427	6587.5975	2434.9913	3923.6222	6610.8291	1.0218587	1
583.4	13190.183	13146.44	6577.0033	2429.7877	3914.9365	6569.4364	0.99418498	1
583.7	13113.26	13098.108	6566.4316	2424.5929	3906.2656	6531.6766	0.95578135	1
584	13085.928	13067.058	6555.8823	2419.4068	3897.6094	6511.176	0.91737771	1
584.3	13023.495	13068.274	6545.3553	2414.2294	3888.9679	6522.9185	0.92463306	1
584.6	13121.395	13102.182	6534.8507	2409.0608	3880.3411	6567.331	1.0188579	1
584.9	13228.328	13142.196	6524.3682	2403.9009	3871.7289	6617.8277	1.1130827	1
585.2	13154.325	13149.174	6513.908	2375.0684	3825.1322	6635.2663	1.1843851	1
585.5	13072.445	13101.042	6503.4699	2369.9761	3816.6327	6597.5717	1.087937	1
585.8	13007.35	13013.176	6493.0538	2388.4732	3845.98	6520.1221	0.99148887	1
586.1	12941.997	12923.026	6482.6597	2383.3479	3837.426	6440.3664	0.89504074	1
586.4	12924.455	12861.845	6472.2876	2378.2313	3828.8867	6389.5577	0.90360125	1
586.7	12828.585	12838.384	6461.9374	2373.1233	3820.3617	6376.4467	0.9243274	1
587	12833.542	12844.863	6451.609	2368.0238	3811.8513	6393.2535	0.94505354	1
587.3	12923.815	12869.734	6441.3023	2339.602	3765.9375	6428.4319	0.99857462	1
587.6	12912.378	12898.785	6431.0174	2334.5694	3757.5383	6467.7679	1.0680932	1
587.9	12903.095	12907.449	6420.7542	2329.5453	3749.1534	6486.695	1.1376118	1
588.2	12840.155	12868.711	6410.5125	2347.7116	3777.9533	6458.1988	1.1194878	1
588.5	12776.965	12777.021	6400.2924	2342.6548	3769.5146	6376.7285	0.99341386	1
588.8	12725.345	12662.943	6390.0938	2337.6066	3761.0903	6272.8495	0.86733989	1
589.1	12678.94	12575.931	6379.9166	2309.5329	3715.7554	6196.0142	0.78552896	1
589.4	12608.888	12546.706	6369.7608	2327.5354	3744.2843	6176.9453	0.85701931	1
589.7	12552.56	12565.13	6359.6263	2322.5126	3735.9026	6205.5034	0.92850965	1
590	12499.667	12596.9	6349.5131	2317.4981	3727.5351	6247.3873	1	1
590.3	12475.513	12616.633	6339.4211	2289.6545	3682.5828	6277.2124	1	1
590.6	12444.745	12620.644	6329.3502	2284.7058	3674.3247	6291.2942	1	1
590.9	12521.917	12616.855	6319.3005	2279.7653	3666.0805	6297.5547	1	1
591.2	12479.322	12609.582	6309.2718	2297.5242	3694.2062	6300.3102	1	1
591.5	12502.845	12597.983	6299.2641	2292.5516	3685.9091	6298.7185	1	1
591.8	12537.305	12581.613	6289.2773	2264.9935	3641.4314	6292.3353	1	1
592.1	12474.747	12563.015	6279.3114	2282.6315	3669.357	6283.704	1	1
592.4	12413.595	12543.723	6269.3663	2255.1868	3625.068	6274.3566	1	1
592.7	12428.725	12524.681	6259.4421	2250.2958	3616.907	6265.2392	1	1
593	12376.847	12506.278	6249.5385	2267.8134	3644.6333	6256.7391	1	1
593.3	12389.183	12487.428	6239.6556	2240.5383	3600.6262	6247.7722	1	1
593.6	12396.935	12468.518	6229.7933	2235.6718	3592.5064	6238.7249	1	1
593.9	12376.972	12451.628	6219.9515	2230.8134	3584.4003	6231.676	1	1
594.2	12354.473	12437.344	6210.1303	2225.9631	3576.3078	6227.2132	1	1
594.5	12273.483	12424.345	6200.3295	2243.2814	3603.7044	6224.0158	1	1
594.8	12236.61	12409.961	6190.5492	2238.3996	3595.5599	6219.4119	1	1
595.1	12226.82	12393.27	6180.7891	2211.461	3552.1122	6212.481	1	1
595.4	12269.923	12375.461	6171.0494	2228.6605	3579.3121	6204.4113	1	1
595.7	12293.828	12356.649	6161.3299	2223.8031	3571.2088	6195.3195	1	1
596	12264.2	12335.656	6151.6306	2197.0313	3528.0668	6184.0257	1	1
596.3	12188.043	12313.864	6141.9515	2192.2375	3520.1678	6171.9124	1	1
596.6	12226.945	12293.561	6132.2924	2187.4517	3512.2821	6161.2683	1	1
596.9	12193	12275.353	6122.6534	2182.6738	3504.4095	6152.6997	1	1
597.2	12158.673	12258.852	6113.0343	2177.9039	3496.5502	6145.8179	1	1
597.5	12133.112	12243.363	6103.4352	2194.8284	3523.3972	6139.9275	1	1
597.8	12176.855	12227.208	6093.8559	2168.388	3480.8711	6133.3518	1	1
598.1	12217.92	12210.051	6084.2965	2185.2345	3507.5902	6125.7545	1	1
598.4	12137.562	12191.79	6074.7569	2158.9038	3465.2444	6117.0327	1	1
598.7	12056.705	12172.62	6065.237	2175.6726	3491.836	6107.3828	1	1
599	12071.835	12153.068	6055.7367	2149.4512	3449.6701	6097.3311	1	1
599.3	12169.228	12134.861	6046.2561	2144.7367	3441.9024	6088.6048	1	1
599.6	12126.125	12118.489	6036.7951	2161.3893	3468.3036	6081.6935	1	1
599.9	12035.728	12101.596	6027.3536	2156.6441	3460.4857	6074.2427	1	1
600.2	12078.065	12081.322	6017.9316	2151.9067	3452.6809	6063.3903	1	1
600.5	12013.727	12058.362	6008.529	2125.957	3410.9616	6049.833	1	1
600.8	11968.337	12035.96	5999.1457	2121.2816	3403.2587	6036.814	1	1
601.1	11996.052	12016.494	5989.7818	2116.614	3395.5687	6026.7118	1	1
601.4	12026.187	11999.387	5980.4372	2133.0359	3421.5918	6018.95	1	1
601.7	12031.403	11982.723	5971.1118	2107.302	3380.2272	6011.6111	1	1
602	12001.525	11966.057	5961.8056	2123.6476	3406.1251	6004.2511	1	1
602.3	12027.335	11948.503	5952.5185	2118.9651	3398.4111	5995.9845	1	1
602.6	11959.313	11928.45	5943.2505	2114.2904	3390.71	5985.1999	1	1
602.9	11917.1	11906.84	5934.0015	2088.7706	3349.6976	5972.8387	1	1
603.2	11824.415	11885.417	5924.7715	2104.9642	3375.3463	5960.6458	1	1
603.5	11783.217	11863.59	5915.5605	2100.3127	3367.6837	5948.0293	1	1
603.8	11725.243	11840.446	5906.3683	2074.9527	3326.9339	5934.0775	1	1
604.1	11734.775	11817.817	5897.195	2070.362	3319.3713	5920.6218	1	1
604.4	11725.625	11796.788	5888.0405	2086.4046	3344.7724	5908.7476	1	1
604.7	11700.065	11775.97	5878.9047	2061.2035	3304.2839	5897.0654	1	1
605	11723.205	11755.009	5869.7876	2056.6356	3296.7591	5885.2214	1	1
605.3	11792.625	11734.75	5860.6891	2072.5655	3321.9755	5874.0604	1	1
605.6	11780.805	11713.723	5851.6093	2047.5226	3281.747	5862.1142	1	1
605.9	11693.585	11692.561	5842.548	2042.9774	3274.2597	5850.0129	1	1
606.2	11651.88	11672.819	5833.5052	2038.4397	3266.7849	5839.3135	1	1
606.5	11577.885	11654.108	5824.4808	2054.2202	3291.7565	5829.6276	1	1
606.8	11592.882	11634.864	5815.4749	2029.3869	3251.8726	5819.3895	1	1
607.1	11623.275	11615.69	5806.4874	2024.8717	3244.435	5809.203	1	1
607.4	11581.953	11597.542	5797.5182	2040.5408	3269.2241	5800.0235	1	1
607.7	11559.952	11579.255	5788.5672	2015.8638	3229.597	5790.6877	1	1
608	11519.395	11559.812	5779.6345	2031.4589	3254.2648	5780.1771	1	1
608.3	11504.523	11539.051	5770.7199	2006.8856	3214.8083	5768.3316	1	1
608.6	11467.65	11518.481	5761.8235	2002.4077	3207.4324	5756.6573	1	1
608.9	11476.55	11499.762	5752.9452	1997.9371	3200.0687	5746.817	1	1
609.2	11460.272	11482.263	5744.0849	2013.3851	3224.4952	5738.1781	1	1
609.5	11401.79	11464.026	5735.2426	1989.0182	3185.378	5728.7832	1	1
609.8	11453.668	11445.114	5726.4183	1984.5698	3178.051	5718.6954	1	1
610.1	11490.025	11426.382	5717.6119	1999.908	3202.2975	5708.7701	1	1
610.4	11456.08	11406.858	5708.8233	1975.695	3163.4334	5698.035	1	1
610.7	11324.743	11387.165	5700.0526	1971.2686	3156.1428	5687.1128	1	1
611	11313.297	11369.42	5691.2996	1966.8495	3148.8643	5678.1203	1	1
611.3	11389.33	11352.942	5682.5643	1982.0421	3172.8721	5670.3772	1	1
611.6	11368.735	11334.719	5673.8468	1977.5941	3165.5463	5660.8727	1	1
611.9	11309.488	11313.394	5665.1469	1953.636	3127.1011	5648.2468	1	1
612.2	11285.832	11291.146	5656.4645	1949.246	3119.8708	5634.6819	1	1
612.5	11302.235	11270.605	5647.7998	1944.8632	3112.6525	5622.8049	1	1
612.8	11266.385	11252.095	5639.1525	1940.4877	3105.4461	5612.9422	1	1
613.1	11242.605	11234.114	5630.5227	1955.4636	3129.0989	5603.5917	1	1
613.4	11209.675	11215.549	5621.9103	1931.7582	3091.2846	5593.6386	1	1
613.7	11270.07	11196.869	5613.3153	1927.4043	3084.5558	5583.5542	1	1
614	11238.795	11179.251	5604.7376	1942.2727	3108.4839	5574.5138	1	1
614.3	11196.2	11161.482	5596.1772	1918.8646	3071.1313	5565.3049	1	1
614.6	11096.262	11142.846	5587.634	1934.266	3094.949	5555.2117	1	1
614.9	11067.915	11123.275	5579.1081	1911.4	3057.7506	5544.1667	1	1
615.2	11001.922	11103.963	5570.5993	1907.6767	3051.0767	5533.3639	1	1
615.5	11056.345	11086.321	5562.1076	1903.9593	3044.4138	5524.2129	1	1
615.8	11063.207	11070.041	5553.633	1919.2371	3068.012	5516.4078	1	1
616.1	11023.415	11052.357	5545.1755	1915.4949	3061.3053	5507.1816	1	1
616.4	10963.145	11031.926	5536.7349	1892.843	3024.4902	5495.191	1	1
616.7	10905.17	11011	5528.3112	1889.1494	3017.8707	5482.6889	1	1
617	10924.75	10992.104	5519.9045	1885.4617	3011.262	5472.1995	1	1
617.3	10943.44	10975.712	5511.5146	1881.7799	3004.6642	5464.1972	1	1
617.6	10868.048	10960.305	5503.1416	1896.8736	3027.9358	5457.1639	1	1
617.9	10839.568	10943.237	5494.7853	1893.1673	3021.2945	5448.4514	1	1
618.2	10756.54	10924.148	5486.4457	1870.7699	2984.9352	5437.7022	1	1
618.5	10742.683	10905.736	5478.1229	1867.1116	2978.3804	5427.6126	1	1
618.8	10798.628	10889.515	5469.8167	1882.0836	3001.4359	5419.6986	1	1
619.1	10822.525	10873.601	5461.5271	1878.4009	2994.838	5412.0736	1	1
619.4	10845.923	10855.849	5453.2541	1874.7241	2988.2508	5402.5951	1	1
619.7	10871.733	10836.214	5444.9976	1871.0531	2981.6744	5391.2166	1	1
620	10768.742	10815.946	5436.7576	1848.9078	2945.7663	5379.1886	1	1
620.3	10760.483	10796.756	5428.5341	1863.7287	2968.5537	5368.2219	1	1
620.6	10769.125	10779.229	5420.3269	1841.667	2932.7951	5358.9022	1	1
620.9	10650.888	10762.997	5412.1361	1856.4277	2955.4758	5350.8609	1	1
621.2	10591.507	10746.825	5403.9617	1852.786	2948.9528	5342.8632	1	1
621.5	10590.742	10729.272	5395.8035	1849.15	2942.4404	5333.4688	1	1
621.8	10615.795	10710.972	5387.6616	1827.2544	2906.9792	5323.3101	1	1
622.1	10637.022	10693.664	5379.5359	1841.8955	2929.4475	5314.1285	1	1
622.4	10551.208	10676.636	5371.4263	1838.277	2922.9669	5305.2096	1	1
622.7	10539.763	10657.7	5363.3329	1834.6641	2916.4969	5294.3673	1	1
623	10552.347	10637.251	5355.2555	1812.9336	2881.3311	5281.9959	1	1
623.3	10610.322	10617.568	5347.1942	1809.3677	2874.9451	5270.3741	1	1
623.6	10599.268	10599.704	5339.1489	1823.8602	2897.1499	5260.5553	1	1
623.9	10557.687	10582.08	5331.1196	1802.2528	2862.2043	5250.96	1	1
624.2	10524.25	10563.917	5323.1062	1816.6862	2884.3043	5240.811	1	1
624.5	10514.077	10545.059	5315.1086	1795.1606	2849.505	5229.9508	1	1
624.8	10536.452	10526.685	5307.127	1791.6229	2843.1708	5219.5576	1	1
625.1	10521.073	10509.467	5299.1611	1805.9681	2865.1141	5210.3057	1	1
625.4	10578.54	10492.306	5291.211	1784.5645	2830.5333	5201.0949	1	1
625.7	10503.78	10474.557	5283.2767	1798.851	2852.3726	5191.28	1	1
626	10497.043	10456.198	5275.358	1777.5285	2817.9368	5180.8396	1	1
626.3	10469.328	10438.443	5267.455	1774.0189	2811.6539	5170.9879	1	1
626.6	10396.473	10421.842	5259.5676	1788.2178	2833.3379	5162.2745	1	1
626.9	10334.173	10405.33	5251.6957	1767.0164	2799.1188	5153.6339	1	1
627.2	10297.3	10388.517	5243.8395	1781.1571	2820.6995	5144.6771	1	1
627.5	10233.603	10371.478	5235.9987	1760.0361	2786.6242	5135.4797	1	1
627.8	10230.043	10354.103	5228.1734	1774.1188	2808.1021	5125.93	1	1
628.1	10246.187	10335.652	5220.3635	1770.608	2801.8188	5115.2886	1	1
628.4	10223.555	10315.581	5212.5689	1749.6073	2767.9584	5103.0116	1	1
628.7	10193.428	10295.385	5204.7898	1746.142	2761.7566	5090.5952	1	1
629	10226.1	10277.304	5197.0259	1742.6822	2755.5648	5080.2784	1	1
629.3	10257.375	10261.136	5189.2774	1739.228	2749.3831	5071.8591	1	1
629.6	10211.353	10245.886	5181.544	1753.1376	2770.5544	5064.342	1	1
629.9	10193.17	10230.175	5173.8259	1732.3358	2737.0498	5056.3493	1	1
630.2	10283.06	10213.743	5166.1229	1746.1882	2758.1194	5047.62	1	1
630.5	10223.688	10195.826	5158.4351	1742.7217	2751.9171	5037.3909	1	1
630.8	10211.985	10176.345	5150.7623	1722.0385	2718.6245	5025.5827	1	1
631.1	10236.78	10157.08	5143.1046	1718.617	2712.5027	5013.975	1	1
631.4	10151.598	10139.223	5135.462	1732.3552	2733.3702	5003.7614	1	1
631.7	10148.67	10122.134	5127.8343	1711.7901	2700.2887	4994.2993	1	1
632	10099.462	10105.471	5120.2215	1708.3848	2694.1965	4985.2493	1	1
632.3	10091.452	10089.904	5112.6236	1722.0379	2714.9131	4977.2807	1	1
632.6	10139.895	10073.322	5105.0406	1718.6097	2709.1176	4968.2812	1	1
632.9	10087.892	10055.013	5097.4725	1698.2011	2676.8595	4957.5401	1	1
633.2	10001.562	10037.403	5089.9191	1694.8172	2671.3526	4947.4839	1	1
633.5	10029.41	10021.527	5082.3806	1708.3575	2692.4333	4939.1463	1	1
633.8	9977.4073	10005.553	5074.8567	1704.9509	2686.8896	4930.6965	1	1
634.1	9943.8454	9988.1986	5067.3475	1684.6978	2654.8842	4920.8511	1	1
634.4	9945.75	9971.3803	5059.853	1681.3353	2649.4122	4911.5273	1	1
634.7	9935.07	9956.69	5052.3731	1694.7634	2670.3112	4904.3169	1	1
635	9841.8781	9942.6236	5044.9078	1691.3783	2664.8027	4897.7158	1	1
635.3	9842.3854	9927.4468	5037.457	1687.9985	2659.3029	4889.9898	1	1
635.6	9812.7573	9910.4723	5030.0208	1684.6241	2653.8118	4880.4515	1	1
635.9	9804.3646	9891.8096	5022.599	1681.255	2648.3294	4869.2106	1	1
636.2	9806.7854	9871.4262	5015.1917	1677.8912	2642.8558	4856.2345	1	1
636.5	9850.2619	9850.1008	5007.7987	1657.9461	2611.3508	4842.3021	1	1
636.8	9870.3581	9829.5348	5000.4202	1654.6258	2605.9479	4829.1146	1	1
637.1	9885.23	9811.601	4993.056	1651.3108	2600.5537	4818.545	1	1
637.4	9835.5146	9794.8111	4985.7061	1664.489	2621.0479	4809.105	1	1
637.7	9807.9246	9777.9079	4978.3705	1644.6964	2589.7907	4799.5374	1	1
638	9786.9473	9760.8646	4971.0491	1641.3971	2584.4221	4789.8155	1	1
638.3	9794.3254	9745.3349	4963.7419	1638.1029	2579.0619	4781.593	1	1
638.6	9844.6727	9730.687	4956.4488	1651.1712	2599.3781	4774.2382	1	1
638.9	9813.3981	9715.5229	4949.1699	1631.5301	2568.3671	4766.3529	1	1
639.2	9810.7281	9699.2597	4941.9051	1644.5437	2588.5947	4757.3545	1	1
639.5	9804.7473	9682.7883	4934.6544	1624.978	2557.7062	4748.1339	1	1
639.8	9711.5554	9666.9011	4927.4177	1621.7097	2552.3884	4739.4834	1	1
640.1	9573.9881	9652.3159	4920.195	1634.6415	2572.4835	4732.1209	1	1
640.4	9581.6154	9637.6313	4912.9863	1631.3511	2567.1301	4724.645	1	1
640.7	9665.1419	9621.9164	4905.7915	1611.9356	2536.4854	4716.1249	1	1
641	9662.6054	9606.1644	4898.6105	1624.7859	2556.4487	4707.5538	1	1
641.3	9601.1954	9590.4104	4891.4435	1621.5111	2551.1206	4698.9669	1	1
641.6	9597.1281	9573.9946	4884.2903	1602.2075	2520.6578	4689.7043	1	1
641.9	9587.5873	9558.0306	4877.1509	1614.9768	2540.4899	4680.8797	1	1
642.2	9645.5619	9542.4142	4870.0252	1611.7174	2535.1871	4672.389	1	1
642.5	9613.2727	9525.7473	4862.9133	1608.4631	2529.8927	4662.834	1	1
642.8	9538.5127	9507.787	4855.8151	1605.2139	2524.6067	4651.972	1	1
643.1	9498.3381	9489.0497	4848.7305	1586.0957	2494.445	4640.3192	1	1
643.4	9526.1773	9470.7078	4841.6596	1598.7308	2514.0596	4629.0482	1	1
643.7	9489.9454	9452.589	4834.6023	1579.6863	2484.0177	4617.9868	1	1
644	9496.1754	9434.3139	4827.5585	1592.268	2503.5459	4606.7554	1	1
644.3	9577.4146	9415.4806	4820.5283	1573.2971	2473.6234	4594.9524	1	1
644.6	9580.7254	9396.6374	4813.5116	1570.11	2468.4385	4583.1258	1	1
644.9	9460.9581	9379.0372	4806.5083	1566.9279	2463.2618	4572.5289	1	1
645.2	9427.77	9363.0263	4799.5185	1563.7507	2458.0933	4563.5078	1	1
645.5	9401.3281	9348.2344	4792.5421	1560.5786	2452.933	4555.6923	1	1
645.8	9320.08	9334.8666	4785.5791	1557.4114	2447.7807	4549.2875	1	1
646.1	9317.0273	9322.3995	4778.6294	1569.8074	2467.0083	4543.7701	1	1
646.4	9355.4219	9309.8336	4771.693	1551.092	2437.5007	4538.1406	1	1
646.7	9377.8054	9297.2151	4764.7699	1563.4353	2456.6429	4532.4451	1	1
647	9338.77	9284.2476	4757.8601	1560.2567	2451.4725	4526.3875	1	1
647.3	9310.4146	9269.9713	4750.9635	1557.0831	2446.3102	4519.0078	1	1
647.6	9313.3427	9254.3692	4744.08	1553.9144	2441.1561	4510.2892	1	1
647.9	9341.9473	9238.4026	4737.2097	1535.3797	2411.9419	4501.1929	1	1
648.2	9368.7719	9223.5214	4730.3526	1547.592	2430.8721	4493.1688	1	1
648.5	9334.8273	9209.0504	4723.5085	1544.4382	2425.7423	4485.5418	1	1
648.8	9354.9146	9193.6293	4716.6775	1541.2894	2420.6205	4476.9518	1	1
649.1	9356.0627	9176.9542	4709.8595	1538.1454	2415.5068	4467.0946	1	1
649.4	9241.2527	9159.6445	4703.0545	1519.79	2386.5838	4456.5899	1	1
649.7	9212.0073	9142.9015	4696.2625	1531.8723	2405.3035	4446.639	1	1
650	9191.6619	9126.7065	4689.4834	1513.5882	2376.4964	4437.2231	1	1
650.3	9104.0681	9110.965	4682.7173	1525.6188	2395.1323	4428.2477	1	1
650.6	9023.0781	9095.1038	4675.964	1507.4057	2366.4406	4419.1398	1	1
650.9	9049.7781	9079.3984	4669.2235	1519.3847	2384.9931	4410.1748	1	1
651.2	9060.5827	9063.5187	4662.4959	1501.2426	2356.4164	4401.0227	1	1
651.5	9034.7727	9047.65	4655.7811	1513.1702	2374.8857	4391.8689	1	1
651.8	9041.0027	9031.6852	4649.079	1495.0987	2346.4237	4382.6063	1	1
652.1	9077.2346	9015.6175	4642.3896	1506.975	2364.81	4373.2278	1	1
652.4	9122.6246	8999.2694	4635.7129	1488.9739	2336.4624	4363.5564	1	1
652.7	9116.7773	8983.4204	4629.0489	1485.9187	2331.4935	4354.3714	1	1
653	9067.4446	8968.557	4622.3976	1497.7184	2349.7558	4346.1594	1	1
653.3	9004.13	8953.6236	4615.7588	1479.8225	2321.579	4337.8648	1	1
653.6	8998.2827	8938.3684	4609.1326	1491.5714	2339.7651	4329.2357	1	1
653.9	8988.3681	8923.1964	4602.519	1473.7454	2312.1688	4320.6775	1	1
654.2	8946.28	8909.0538	4595.9179	1470.7139	2307.705	4313.1359	1	1
654.5	8938.0119	8896.3712	4589.3292	1482.3868	2326.241	4307.042	1	1
654.8	8862.7473	8883.6751	4582.753	1479.3348	2321.7468	4300.9221	1	1
655.1	8826.13	8869.189	4576.1893	1476.2875	2317.2596	4292.9997	1	1
655.4	8830.1991	8853.4076	4569.6379	1458.8603	2289.9184	4283.7696	1	1
655.7	8816.7218	8838.1849	4563.099	1470.6822	2308.3058	4275.0859	1	1
656	8791.42	8823.6363	4556.5723	1453.3395	2281.0662	4267.064	1	1
656.3	8763.5763	8809.3458	4550.058	1465.115	2299.3797	4259.2878	1	1
656.6	8792.9464	8794.6865	4543.556	1462.3378	2294.9269	4251.1305	1	1
656.9	8790.2764	8778.8876	4537.0662	1445.09	2267.8388	4241.8215	1	1
657.2	8836.4291	8762.8722	4530.5886	1456.7961	2286.0418	4232.2836	1	1
657.5	8867.7064	8747.1591	4524.1233	1439.6113	2259.0544	4223.0358	1	1
657.8	8800.8291	8732.0439	4517.6701	1451.2714	2277.184	4214.3738	1	1
658.1	8771.84	8717.3881	4511.229	1434.1494	2250.2971	4206.1591	1	1
658.4	8812.6536	8703.2038	4504.8001	1445.7635	2268.3535	4198.4037	1	1
658.7	8803.3718	8688.6326	4498.3832	1443.0159	2263.9484	4190.2494	1	1
659	8759.8891	8672.6051	4491.9784	1440.2724	2259.5501	4180.6266	1	1
659.3	8774.1291	8655.612	4485.5857	1423.2756	2232.8629	4170.0264	1	1
659.6	8742.8518	8640.1772	4479.2049	1420.5675	2228.5211	4160.9723	1	1
659.9	8697.97	8626.9969	4472.8361	1432.0672	2246.3956	4154.1608	1	1
660.2	8663.0063	8614.657	4466.4792	1429.3405	2242.0242	4148.1777	1	1
660.5	8633.5091	8601.2275	4460.1343	1426.618	2237.6596	4141.0932	1	1
660.8	8628.1691	8586.5982	4453.8012	1423.8996	2233.3016	4132.7969	1	1
661.1	8563.1991	8571.3342	4447.4801	1421.1853	2228.9503	4123.8541	1	1
661.4	8546.2891	8555.1838	4441.1707	1418.4752	2224.6057	4114.0131	1	1
661.7	8589.2636	8537.6084	4434.8732	1415.7692	2220.2678	4102.7353	1	1
662	8575.4045	8518.413	4428.5874	1399.051	2194.0257	4089.8256	1	1
662.3	8576.6763	8497.9532	4422.3134	1396.3798	2189.7435	4075.6398	1	1
662.6	8565.4873	8474.4148	4416.0511	1407.676	2207.2938	4058.3637	1	1
662.9	8570.8273	8442.6812	4409.8005	1391.0497	2181.1987	4032.8807	1	1
663.2	8516.2836	8395.7328	4403.5615	1402.3011	2198.6776	3992.1713	1	1
663.5	8487.1673	8322.9269	4397.3343	1385.7359	2172.6801	3925.5927	1	1
663.8	8445.8463	8202.5633	4391.1186	1396.9425	2190.0878	3811.4447	1	1
664.1	8467.0791	7994.8377	4384.9145	1380.4382	2164.1876	3609.9232	1	1
664.4	8374.2645	7659.972	4378.722	1391.6002	2181.5242	3281.25	1	1
