#FORMAT	     : EMSA/MAS Spectral Data File
#VERSION     : 1.0
#TITLE       : BG_cal
#DATE        : 
#TIME        : 
#OWNER       : 
#NPOINTS     : 1024
#NCOLUMNS    : 1
#XUNITS      : eV
#YUNITS      : 
#DATATYPE    : XY
#XPERCHAN    : 3.000000e-001
#OFFSET      : 3.806000e+002
#SPECTRUM    : Spectral Data Starts Here
3.806000e+002, 1.175400e+003
3.809000e+002, 1.147347e+003
3.812000e+002, 1.161032e+003
3.815000e+002, 1.175566e+003
3.818000e+002, 1.180253e+003
3.821000e+002, 1.184960e+003
3.824000e+002, 1.189781e+003
3.827000e+002, 1.193592e+003
3.830000e+002, 1.195052e+003
3.833000e+002, 1.201863e+003
3.836000e+002, 1.206686e+003
3.839000e+002, 1.213610e+003
3.842000e+002, 1.220418e+003
3.845000e+002, 1.225678e+003
3.848000e+002, 1.232557e+003
3.851000e+002, 1.239166e+003
3.854000e+002, 1.245484e+003
3.857000e+002, 1.253450e+003
3.860000e+002, 1.259735e+003
3.863000e+002, 1.266928e+003
3.866000e+002, 1.271683e+003
3.869000e+002, 1.275699e+003
3.872000e+002, 1.282459e+003
3.875000e+002, 1.292313e+003
3.878000e+002, 1.299473e+003
3.881000e+002, 1.305548e+003
3.884000e+002, 1.311168e+003
3.887000e+002, 1.318701e+003
3.890000e+002, 1.324217e+003
3.893000e+002, 1.331200e+003
3.896000e+002, 1.338881e+003
3.899000e+002, 1.345964e+003
3.902000e+002, 1.353018e+003
3.905000e+002, 1.358087e+003
3.908000e+002, 1.364611e+003
3.911000e+002, 1.370885e+003
3.914000e+002, 1.376113e+003
3.917000e+002, 1.382610e+003
3.920000e+002, 1.387248e+003
3.923000e+002, 1.392690e+003
3.926000e+002, 1.399766e+003
3.929000e+002, 1.406721e+003
3.932000e+002, 1.411370e+003
3.935000e+002, 1.417822e+003
3.938000e+002, 1.420950e+003
3.941000e+002, 1.427510e+003
3.944000e+002, 1.433618e+003
3.947000e+002, 1.438676e+003
3.950000e+002, 1.442073e+003
3.953000e+002, 1.449888e+003
3.956000e+002, 1.456923e+003
3.959000e+002, 1.461426e+003
3.962000e+002, 1.464131e+003
3.965000e+002, 1.468635e+003
3.968000e+002, 1.474275e+003
3.971000e+002, 1.479430e+003
3.974000e+002, 1.484967e+003
3.977000e+002, 1.492586e+003
3.980000e+002, 1.498623e+003
3.983000e+002, 1.506436e+003
3.986000e+002, 1.511992e+003
3.989000e+002, 1.515913e+003
3.992000e+002, 1.521796e+003
3.995000e+002, 1.526524e+003
3.998000e+002, 1.530865e+003
4.001000e+002, 1.534087e+003
4.004000e+002, 1.538625e+003
4.007000e+002, 1.544185e+003
4.010000e+002, 1.549833e+003
4.013000e+002, 1.555688e+003
4.016000e+002, 1.560571e+003
4.019000e+002, 1.565090e+003
4.022000e+002, 1.568863e+003
4.025000e+002, 1.574761e+003
4.028000e+002, 1.579669e+003
4.031000e+002, 1.583145e+003
4.034000e+002, 1.590378e+003
4.037000e+002, 1.595720e+003
4.040000e+002, 1.601022e+003
4.043000e+002, 1.604029e+003
4.046000e+002, 1.607219e+003
4.049000e+002, 1.612662e+003
4.052000e+002, 1.616764e+003
4.055000e+002, 1.622541e+003
4.058000e+002, 1.627855e+003
4.061000e+002, 1.630688e+003
4.064000e+002, 1.634995e+003
4.067000e+002, 1.639532e+003
4.070000e+002, 1.641166e+003
4.073000e+002, 1.644342e+003
4.076000e+002, 1.648771e+003
4.079000e+002, 1.653611e+003
4.082000e+002, 1.657847e+003
4.085000e+002, 1.664735e+003
4.088000e+002, 1.672564e+003
4.091000e+002, 1.676222e+003
4.094000e+002, 1.680708e+003
4.097000e+002, 1.685022e+003
4.100000e+002, 1.686549e+003
4.103000e+002, 1.689866e+003
4.106000e+002, 1.696432e+003
4.109000e+002, 1.701743e+003
4.112000e+002, 1.707214e+003
4.115000e+002, 1.710619e+003
4.118000e+002, 1.715108e+003
4.121000e+002, 1.717603e+003
4.124000e+002, 1.723157e+003
4.127000e+002, 1.727153e+003
4.130000e+002, 1.731579e+003
4.133000e+002, 1.737309e+003
4.136000e+002, 1.740412e+003
4.139000e+002, 1.745392e+003
4.142000e+002, 1.748531e+003
4.145000e+002, 1.752258e+003
4.148000e+002, 1.756626e+003
4.151000e+002, 1.759225e+003
4.154000e+002, 1.762662e+003
4.157000e+002, 1.770308e+003
4.160000e+002, 1.775594e+003
4.163000e+002, 1.778955e+003
4.166000e+002, 1.783673e+003
4.169000e+002, 1.787770e+003
4.172000e+002, 1.788971e+003
4.175000e+002, 1.791641e+003
4.178000e+002, 1.794567e+003
4.181000e+002, 1.798124e+003
4.184000e+002, 1.801890e+003
4.187000e+002, 1.808563e+003
4.190000e+002, 1.814418e+003
4.193000e+002, 1.817152e+003
4.196000e+002, 1.820666e+003
4.199000e+002, 1.823567e+003
4.202000e+002, 1.829440e+003
4.205000e+002, 1.834993e+003
4.208000e+002, 1.840015e+003
4.211000e+002, 1.841357e+003
4.214000e+002, 1.842379e+003
4.217000e+002, 1.846724e+003
4.220000e+002, 1.850203e+003
4.223000e+002, 1.854593e+003
4.226000e+002, 1.859172e+003
4.229000e+002, 1.863979e+003
4.232000e+002, 1.868920e+003
4.235000e+002, 1.874612e+003
4.238000e+002, 1.879045e+003
4.241000e+002, 1.883084e+003
4.244000e+002, 1.885633e+003
4.247000e+002, 1.889339e+003
4.250000e+002, 1.894218e+003
4.253000e+002, 1.896959e+003
4.256000e+002, 1.902695e+003
4.259000e+002, 1.907485e+003
4.262000e+002, 1.911153e+003
4.265000e+002, 1.916560e+003
4.268000e+002, 1.921361e+003
4.271000e+002, 1.925201e+003
4.274000e+002, 1.926571e+003
4.277000e+002, 1.927164e+003
4.280000e+002, 1.929811e+003
4.283000e+002, 1.933970e+003
4.286000e+002, 1.938399e+003
4.289000e+002, 1.941979e+003
4.292000e+002, 1.942685e+003
4.295000e+002, 1.945935e+003
4.298000e+002, 1.950930e+003
4.301000e+002, 1.958012e+003
4.304000e+002, 1.961470e+003
4.307000e+002, 1.963131e+003
4.310000e+002, 1.964898e+003
4.313000e+002, 1.967472e+003
4.316000e+002, 1.968979e+003
4.319000e+002, 1.971582e+003
4.322000e+002, 1.972981e+003
4.325000e+002, 1.976030e+003
4.328000e+002, 1.978742e+003
4.331000e+002, 1.981339e+003
4.334000e+002, 1.984240e+003
4.337000e+002, 1.987030e+003
4.340000e+002, 1.991036e+003
4.343000e+002, 1.991703e+003
4.346000e+002, 1.996749e+003
4.349000e+002, 1.999542e+003
4.352000e+002, 2.002688e+003
4.355000e+002, 2.005197e+003
4.358000e+002, 2.006968e+003
4.361000e+002, 2.010590e+003
4.364000e+002, 2.014632e+003
4.367000e+002, 2.017218e+003
4.370000e+002, 2.019153e+003
4.373000e+002, 2.021160e+003
4.376000e+002, 2.021433e+003
4.379000e+002, 2.026957e+003
4.382000e+002, 2.027196e+003
4.385000e+002, 2.029241e+003
4.388000e+002, 2.028839e+003
4.391000e+002, 2.031156e+003
4.394000e+002, 2.035183e+003
4.397000e+002, 2.037623e+003
4.400000e+002, 2.038186e+003
4.403000e+002, 2.040677e+003
4.406000e+002, 2.040859e+003
4.409000e+002, 2.042817e+003
4.412000e+002, 2.042714e+003
4.415000e+002, 2.043498e+003
4.418000e+002, 2.044001e+003
4.421000e+002, 2.043750e+003
4.424000e+002, 2.045567e+003
4.427000e+002, 2.044451e+003
4.430000e+002, 2.045119e+003
4.433000e+002, 2.043484e+003
4.436000e+002, 2.045539e+003
4.439000e+002, 2.046422e+003
4.442000e+002, 2.046960e+003
4.445000e+002, 2.047605e+003
4.448000e+002, 2.047440e+003
4.451000e+002, 2.047455e+003
4.454000e+002, 2.049567e+003
4.457000e+002, 2.050217e+003
4.460000e+002, 2.049044e+003
4.463000e+002, 2.049312e+003
4.466000e+002, 2.048845e+003
4.469000e+002, 2.051868e+003
4.472000e+002, 2.054084e+003
4.475000e+002, 2.054190e+003
4.478000e+002, 2.052792e+003
4.481000e+002, 2.051225e+003
4.484000e+002, 2.052497e+003
4.487000e+002, 2.054765e+003
4.490000e+002, 2.055968e+003
4.493000e+002, 2.060252e+003
4.496000e+002, 2.062845e+003
4.499000e+002, 2.065612e+003
4.502000e+002, 2.068182e+003
4.505000e+002, 2.070438e+003
4.508000e+002, 2.072768e+003
4.511000e+002, 2.073655e+003
4.514000e+002, 2.076222e+003
4.517000e+002, 2.080058e+003
4.520000e+002, 2.084310e+003
4.523000e+002, 2.086119e+003
4.526000e+002, 2.087952e+003
4.529000e+002, 2.090688e+003
4.532000e+002, 2.095059e+003
4.535000e+002, 2.097317e+003
4.538000e+002, 2.101015e+003
4.541000e+002, 2.105101e+003
4.544000e+002, 2.107014e+003
4.547000e+002, 2.110892e+003
4.550000e+002, 2.114389e+003
4.553000e+002, 2.117232e+003
4.556000e+002, 2.118359e+003
4.559000e+002, 2.118261e+003
4.562000e+002, 2.121909e+003
4.565000e+002, 2.127521e+003
4.568000e+002, 2.131097e+003
4.571000e+002, 2.135534e+003
4.574000e+002, 2.138345e+003
4.577000e+002, 2.140392e+003
4.580000e+002, 2.141881e+003
4.583000e+002, 2.143774e+003
4.586000e+002, 2.145335e+003
4.589000e+002, 2.146531e+003
4.592000e+002, 2.147727e+003
4.595000e+002, 2.149475e+003
4.598000e+002, 2.151150e+003
4.601000e+002, 2.155357e+003
4.604000e+002, 2.158018e+003
4.607000e+002, 2.160345e+003
4.610000e+002, 2.161454e+003
4.613000e+002, 2.164344e+003
4.616000e+002, 2.166786e+003
4.619000e+002, 2.165825e+003
4.622000e+002, 2.167567e+003
4.625000e+002, 2.167757e+003
4.628000e+002, 2.164723e+003
4.631000e+002, 2.165790e+003
4.634000e+002, 2.166592e+003
4.637000e+002, 2.166903e+003
4.640000e+002, 2.165971e+003
4.643000e+002, 2.162786e+003
4.646000e+002, 2.163600e+003
4.649000e+002, 2.161052e+003
4.652000e+002, 2.158641e+003
4.655000e+002, 2.157272e+003
4.658000e+002, 2.153254e+003
4.661000e+002, 2.149966e+003
4.664000e+002, 2.148080e+003
4.667000e+002, 2.144567e+003
4.670000e+002, 2.140120e+003
4.673000e+002, 2.137104e+003
4.676000e+002, 2.132619e+003
4.679000e+002, 2.127498e+003
4.682000e+002, 2.122695e+003
4.685000e+002, 2.118610e+003
4.688000e+002, 2.111818e+003
4.691000e+002, 2.104423e+003
4.694000e+002, 2.098155e+003
4.697000e+002, 2.091661e+003
4.700000e+002, 2.084505e+003
4.703000e+002, 2.076419e+003
4.706000e+002, 2.069865e+003
4.709000e+002, 2.063905e+003
4.712000e+002, 2.056368e+003
4.715000e+002, 2.048770e+003
4.718000e+002, 2.039542e+003
4.721000e+002, 2.031807e+003
4.724000e+002, 2.023324e+003
4.727000e+002, 2.013945e+003
4.730000e+002, 2.008134e+003
4.733000e+002, 1.999913e+003
4.736000e+002, 1.993516e+003
4.739000e+002, 1.983934e+003
4.742000e+002, 1.975474e+003
4.745000e+002, 1.968262e+003
4.748000e+002, 1.959959e+003
4.751000e+002, 1.949170e+003
4.754000e+002, 1.939341e+003
4.757000e+002, 1.931215e+003
4.760000e+002, 1.922270e+003
4.763000e+002, 1.914244e+003
4.766000e+002, 1.905121e+003
4.769000e+002, 1.895374e+003
4.772000e+002, 1.886073e+003
4.775000e+002, 1.876792e+003
4.778000e+002, 1.866648e+003
4.781000e+002, 1.854870e+003
4.784000e+002, 1.844924e+003
4.787000e+002, 1.834633e+003
4.790000e+002, 1.824208e+003
4.793000e+002, 1.812610e+003
4.796000e+002, 1.802426e+003
4.799000e+002, 1.794245e+003
4.802000e+002, 1.787596e+003
4.805000e+002, 1.779668e+003
4.808000e+002, 1.770163e+003
4.811000e+002, 1.762952e+003
4.814000e+002, 1.753330e+003
4.817000e+002, 1.744360e+003
4.820000e+002, 1.734306e+003
4.823000e+002, 1.723826e+003
4.826000e+002, 1.715654e+003
4.829000e+002, 1.706750e+003
4.832000e+002, 1.697782e+003
4.835000e+002, 1.689419e+003
4.838000e+002, 1.683131e+003
4.841000e+002, 1.676286e+003
4.844000e+002, 1.668008e+003
4.847000e+002, 1.659537e+003
4.850000e+002, 1.651812e+003
4.853000e+002, 1.644928e+003
4.856000e+002, 1.637532e+003
4.859000e+002, 1.629309e+003
4.862000e+002, 1.620834e+003
4.865000e+002, 1.614043e+003
4.868000e+002, 1.606997e+003
4.871000e+002, 1.601258e+003
4.874000e+002, 1.593315e+003
4.877000e+002, 1.589081e+003
4.880000e+002, 1.586348e+003
4.883000e+002, 1.579211e+003
4.886000e+002, 1.572015e+003
4.889000e+002, 1.563655e+003
4.892000e+002, 1.558890e+003
4.895000e+002, 1.553251e+003
4.898000e+002, 1.547098e+003
4.901000e+002, 1.544368e+003
4.904000e+002, 1.541277e+003
4.907000e+002, 1.535445e+003
4.910000e+002, 1.531965e+003
4.913000e+002, 1.528232e+003
4.916000e+002, 1.524411e+003
4.919000e+002, 1.519938e+003
4.922000e+002, 1.513508e+003
4.925000e+002, 1.507146e+003
4.928000e+002, 1.501116e+003
4.931000e+002, 1.496051e+003
4.934000e+002, 1.492720e+003
4.937000e+002, 1.487054e+003
4.940000e+002, 1.482953e+003
4.943000e+002, 1.479240e+003
4.946000e+002, 1.474325e+003
4.949000e+002, 1.470134e+003
4.952000e+002, 1.464610e+003
4.955000e+002, 1.462076e+003
4.958000e+002, 1.456970e+003
4.961000e+002, 1.455845e+003
4.964000e+002, 1.450007e+003
4.967000e+002, 1.445567e+003
4.970000e+002, 1.441081e+003
4.973000e+002, 1.436334e+003
4.976000e+002, 1.433097e+003
4.979000e+002, 1.427695e+003
4.982000e+002, 1.423349e+003
4.985000e+002, 1.418804e+003
4.988000e+002, 1.413603e+003
4.991000e+002, 1.407520e+003
4.994000e+002, 1.404811e+003
4.997000e+002, 1.399023e+003
5.000000e+002, 1.394462e+003
5.003000e+002, 1.388170e+003
5.006000e+002, 1.383850e+003
5.009000e+002, 1.382826e+003
5.012000e+002, 1.379731e+003
5.015000e+002, 1.377833e+003
5.018000e+002, 1.372943e+003
5.021000e+002, 1.368712e+003
5.024000e+002, 1.367316e+003
5.027000e+002, 1.364208e+003
5.030000e+002, 1.361995e+003
5.033000e+002, 1.360890e+003
5.036000e+002, 1.358265e+003
5.039000e+002, 1.357393e+003
5.042000e+002, 1.352354e+003
5.045000e+002, 1.350673e+003
5.048000e+002, 1.344823e+003
5.051000e+002, 1.341200e+003
5.054000e+002, 1.338879e+003
5.057000e+002, 1.336822e+003
5.060000e+002, 1.336295e+003
5.063000e+002, 1.334847e+003
5.066000e+002, 1.332334e+003
5.069000e+002, 1.329866e+003
5.072000e+002, 1.328132e+003
5.075000e+002, 1.323659e+003
5.078000e+002, 1.319668e+003
5.081000e+002, 1.316026e+003
5.084000e+002, 1.315033e+003
5.087000e+002, 1.312768e+003
5.090000e+002, 1.312290e+003
5.093000e+002, 1.310174e+003
5.096000e+002, 1.308028e+003
5.099000e+002, 1.305606e+003
5.102000e+002, 1.301243e+003
5.105000e+002, 1.300244e+003
5.108000e+002, 1.296989e+003
5.111000e+002, 1.292125e+003
5.114000e+002, 1.289397e+003
5.117000e+002, 1.286066e+003
5.120000e+002, 1.281452e+003
5.123000e+002, 1.280327e+003
5.126000e+002, 1.278189e+003
5.129000e+002, 1.276379e+003
5.132000e+002, 1.273124e+003
5.135000e+002, 1.274196e+003
5.138000e+002, 1.273149e+003
5.141000e+002, 1.271014e+003
5.144000e+002, 1.267999e+003
5.147000e+002, 1.263658e+003
5.150000e+002, 1.261834e+003
5.153000e+002, 1.259839e+003
5.156000e+002, 1.258397e+003
5.159000e+002, 1.253956e+003
5.162000e+002, 1.253735e+003
5.165000e+002, 1.253090e+003
5.168000e+002, 1.252390e+003
5.171000e+002, 1.250974e+003
5.174000e+002, 1.247615e+003
5.177000e+002, 1.244709e+003
5.180000e+002, 1.242564e+003
5.183000e+002, 1.239532e+003
5.186000e+002, 1.237361e+003
5.189000e+002, 1.235357e+003
5.192000e+002, 1.233323e+003
5.195000e+002, 1.233117e+003
5.198000e+002, 1.232634e+003
5.201000e+002, 1.230538e+003
5.204000e+002, 1.229179e+003
5.207000e+002, 1.230157e+003
5.210000e+002, 1.227066e+003
5.213000e+002, 1.225663e+003
5.216000e+002, 1.224138e+003
5.219000e+002, 1.222135e+003
5.222000e+002, 1.219255e+003
5.225000e+002, 1.216301e+003
5.228000e+002, 1.213534e+003
5.231000e+002, 1.212324e+003
5.234000e+002, 1.211091e+003
5.237000e+002, 1.208378e+003
5.240000e+002, 1.206261e+003
5.243000e+002, 1.203177e+003
5.246000e+002, 1.200606e+003
5.249000e+002, 1.198862e+003
5.252000e+002, 1.196735e+003
5.255000e+002, 1.193141e+003
5.258000e+002, 1.190240e+003
5.261000e+002, 1.189374e+003
5.264000e+002, 1.188756e+003
5.267000e+002, 1.187131e+003
5.270000e+002, 1.184512e+003
5.273000e+002, 1.184272e+003
5.276000e+002, 1.183273e+003
5.279000e+002, 1.181105e+003
5.282000e+002, 1.176269e+003
5.285000e+002, 1.173018e+003
5.288000e+002, 1.172614e+003
5.291000e+002, 1.171999e+003
5.294000e+002, 1.169655e+003
5.297000e+002, 1.168200e+003
5.300000e+002, 1.165490e+003
5.303000e+002, 1.164429e+003
5.306000e+002, 1.164070e+003
5.309000e+002, 1.162148e+003
5.312000e+002, 1.161476e+003
5.315000e+002, 1.159218e+003
5.318000e+002, 1.158001e+003
5.321000e+002, 1.157356e+003
5.324000e+002, 1.154734e+003
5.327000e+002, 1.154226e+003
5.330000e+002, 1.153910e+003
5.333000e+002, 1.155488e+003
5.336000e+002, 1.153615e+003
5.339000e+002, 1.152643e+003
5.342000e+002, 1.152370e+003
5.345000e+002, 1.150113e+003
5.348000e+002, 1.148527e+003
5.351000e+002, 1.146123e+003
5.354000e+002, 1.144461e+003
5.357000e+002, 1.144171e+003
5.360000e+002, 1.141655e+003
5.363000e+002, 1.142026e+003
5.366000e+002, 1.141332e+003
5.369000e+002, 1.140967e+003
5.372000e+002, 1.141721e+003
5.375000e+002, 1.140092e+003
5.378000e+002, 1.136908e+003
5.381000e+002, 1.133197e+003
5.384000e+002, 1.132913e+003
5.387000e+002, 1.130193e+003
5.390000e+002, 1.127279e+003
5.393000e+002, 1.125032e+003
5.396000e+002, 1.122778e+003
5.399000e+002, 1.120393e+003
5.402000e+002, 1.120505e+003
5.405000e+002, 1.119717e+003
5.408000e+002, 1.117301e+003
5.411000e+002, 1.116763e+003
5.414000e+002, 1.114172e+003
5.417000e+002, 1.112044e+003
5.420000e+002, 1.107750e+003
5.423000e+002, 1.106501e+003
5.426000e+002, 1.104763e+003
5.429000e+002, 1.102963e+003
5.432000e+002, 1.101210e+003
5.435000e+002, 1.099127e+003
5.438000e+002, 1.096468e+003
5.441000e+002, 1.093520e+003
5.444000e+002, 1.091352e+003
5.447000e+002, 1.088217e+003
5.450000e+002, 1.084655e+003
5.453000e+002, 1.083051e+003
5.456000e+002, 1.084091e+003
5.459000e+002, 1.082223e+003
5.462000e+002, 1.080510e+003
5.465000e+002, 1.079188e+003
5.468000e+002, 1.078895e+003
5.471000e+002, 1.076236e+003
5.474000e+002, 1.075930e+003
5.477000e+002, 1.075825e+003
5.480000e+002, 1.073073e+003
5.483000e+002, 1.071436e+003
5.486000e+002, 1.069583e+003
5.489000e+002, 1.067803e+003
5.492000e+002, 1.066219e+003
5.495000e+002, 1.064658e+003
5.498000e+002, 1.062938e+003
5.501000e+002, 1.062228e+003
5.504000e+002, 1.061037e+003
5.507000e+002, 1.059640e+003
5.510000e+002, 1.059921e+003
5.513000e+002, 1.058995e+003
5.516000e+002, 1.057290e+003
5.519000e+002, 1.056338e+003
5.522000e+002, 1.054566e+003
5.525000e+002, 1.054368e+003
5.528000e+002, 1.053378e+003
5.531000e+002, 1.051466e+003
5.534000e+002, 1.049303e+003
5.537000e+002, 1.047077e+003
5.540000e+002, 1.044890e+003
5.543000e+002, 1.041913e+003
5.546000e+002, 1.040539e+003
5.549000e+002, 1.038098e+003
5.552000e+002, 1.036348e+003
5.555000e+002, 1.034239e+003
5.558000e+002, 1.032440e+003
5.561000e+002, 1.030193e+003
5.564000e+002, 1.030103e+003
5.567000e+002, 1.028799e+003
5.570000e+002, 1.027628e+003
5.573000e+002, 1.027634e+003
5.576000e+002, 1.024458e+003
5.579000e+002, 1.022288e+003
5.582000e+002, 1.020437e+003
5.585000e+002, 1.019229e+003
5.588000e+002, 1.017982e+003
5.591000e+002, 1.014983e+003
5.594000e+002, 1.014106e+003
5.597000e+002, 1.009946e+003
5.600000e+002, 1.010236e+003
5.603000e+002, 1.009370e+003
5.606000e+002, 1.007948e+003
5.609000e+002, 1.008065e+003
5.612000e+002, 1.005808e+003
5.615000e+002, 1.005804e+003
5.618000e+002, 1.004669e+003
5.621000e+002, 1.005546e+003
5.624000e+002, 1.006810e+003
5.627000e+002, 1.006717e+003
5.630000e+002, 1.005262e+003
5.633000e+002, 1.004686e+003
5.636000e+002, 1.003637e+003
5.639000e+002, 1.003512e+003
5.642000e+002, 1.002702e+003
5.645000e+002, 1.002088e+003
5.648000e+002, 1.001834e+003
5.651000e+002, 9.990510e+002
5.654000e+002, 9.985724e+002
5.657000e+002, 9.967269e+002
5.660000e+002, 9.930179e+002
5.663000e+002, 9.922151e+002
5.666000e+002, 9.916717e+002
5.669000e+002, 9.917600e+002
5.672000e+002, 9.913159e+002
5.675000e+002, 9.909627e+002
5.678000e+002, 9.908248e+002
5.681000e+002, 9.882042e+002
5.684000e+002, 9.871710e+002
5.687000e+002, 9.840648e+002
5.690000e+002, 9.824221e+002
5.693000e+002, 9.827710e+002
5.696000e+002, 9.808331e+002
5.699000e+002, 9.805352e+002
5.702000e+002, 9.794648e+002
5.705000e+002, 9.781834e+002
5.708000e+002, 9.777434e+002
5.711000e+002, 9.753338e+002
5.714000e+002, 9.739296e+002
5.717000e+002, 9.743766e+002
5.720000e+002, 9.723117e+002
5.723000e+002, 9.714387e+002
5.726000e+002, 9.696855e+002
5.729000e+002, 9.704055e+002
5.732000e+002, 9.703987e+002
5.735000e+002, 9.689421e+002
5.738000e+002, 9.678152e+002
5.741000e+002, 9.677724e+002
5.744000e+002, 9.675613e+002
5.747000e+002, 9.697159e+002
5.750000e+002, 9.703876e+002
5.753000e+002, 9.676731e+002
5.756000e+002, 9.664993e+002
5.759000e+002, 9.666124e+002
5.762000e+002, 9.645862e+002
5.765000e+002, 9.632551e+002
5.768000e+002, 9.653104e+002
5.771000e+002, 9.657696e+002
5.774000e+002, 9.651710e+002
5.777000e+002, 9.637683e+002
5.780000e+002, 9.626965e+002
5.783000e+002, 9.649724e+002
5.786000e+002, 9.656704e+002
5.789000e+002, 9.634717e+002
5.792000e+002, 9.629324e+002
5.795000e+002, 9.621421e+002
5.798000e+002, 9.614539e+002
5.801000e+002, 9.603365e+002
5.804000e+002, 9.595173e+002
5.807000e+002, 9.580027e+002
5.810000e+002, 9.568387e+002
5.813000e+002, 9.551351e+002
5.816000e+002, 9.532773e+002
5.819000e+002, 9.509779e+002
5.822000e+002, 9.512441e+002
5.825000e+002, 9.507255e+002
5.828000e+002, 9.502221e+002
5.831000e+002, 9.501007e+002
5.834000e+002, 9.488290e+002
5.837000e+002, 9.477890e+002
5.840000e+002, 9.476579e+002
5.843000e+002, 9.475558e+002
5.846000e+002, 9.447559e+002
5.849000e+002, 9.450690e+002
5.852000e+002, 9.450579e+002
5.855000e+002, 9.442042e+002
5.858000e+002, 9.437628e+002
5.861000e+002, 9.438979e+002
5.864000e+002, 9.461007e+002
5.867000e+002, 9.457517e+002
5.870000e+002, 9.411213e+002
5.873000e+002, 9.386649e+002
5.876000e+002, 9.386566e+002
5.879000e+002, 9.376207e+002
5.882000e+002, 9.359904e+002
5.885000e+002, 9.354717e+002
5.888000e+002, 9.346662e+002
5.891000e+002, 9.327131e+002
5.894000e+002, 9.345435e+002
5.897000e+002, 9.361973e+002
5.900000e+002, 9.374621e+002
5.903000e+002, 9.380413e+002
5.906000e+002, 9.381710e+002
5.909000e+002, 9.382634e+002
5.912000e+002, 9.389187e+002
5.915000e+002, 9.374387e+002
5.918000e+002, 9.372896e+002
5.921000e+002, 9.363117e+002
5.924000e+002, 9.372524e+002
5.927000e+002, 9.389352e+002
5.930000e+002, 9.395007e+002
5.933000e+002, 9.400566e+002
5.936000e+002, 9.410910e+002
5.939000e+002, 9.416373e+002
5.942000e+002, 9.402413e+002
5.945000e+002, 9.392662e+002
5.948000e+002, 9.383586e+002
5.951000e+002, 9.374083e+002
5.954000e+002, 9.368179e+002
5.957000e+002, 9.375890e+002
5.960000e+002, 9.393572e+002
5.963000e+002, 9.393627e+002
5.966000e+002, 9.410427e+002
5.969000e+002, 9.424993e+002
5.972000e+002, 9.430000e+002
5.975000e+002, 9.431766e+002
5.978000e+002, 9.432344e+002
5.981000e+002, 9.419573e+002
5.984000e+002, 9.393793e+002
5.987000e+002, 9.388842e+002
5.990000e+002, 9.377062e+002
5.993000e+002, 9.381462e+002
5.996000e+002, 9.374304e+002
5.999000e+002, 9.376096e+002
6.002000e+002, 9.381021e+002
6.005000e+002, 9.391724e+002
6.008000e+002, 9.415959e+002
6.011000e+002, 9.414387e+002
6.014000e+002, 9.402386e+002
6.017000e+002, 9.382455e+002
6.020000e+002, 9.373862e+002
6.023000e+002, 9.363228e+002
6.026000e+002, 9.367932e+002
6.029000e+002, 9.381890e+002
6.032000e+002, 9.384607e+002
6.035000e+002, 9.391062e+002
6.038000e+002, 9.389931e+002
6.041000e+002, 9.387944e+002
6.044000e+002, 9.401766e+002
6.047000e+002, 9.410276e+002
6.050000e+002, 9.408979e+002
6.053000e+002, 9.408055e+002
6.056000e+002, 9.410290e+002
6.059000e+002, 9.403904e+002
6.062000e+002, 9.420069e+002
6.065000e+002, 9.432056e+002
6.068000e+002, 9.443324e+002
6.071000e+002, 9.462124e+002
6.074000e+002, 9.481766e+002
6.077000e+002, 9.498096e+002
6.080000e+002, 9.509366e+002
6.083000e+002, 9.521131e+002
6.086000e+002, 9.512524e+002
6.089000e+002, 9.536869e+002
6.092000e+002, 9.540000e+002
6.095000e+002, 9.554841e+002
6.098000e+002, 9.566758e+002
6.101000e+002, 9.586496e+002
6.104000e+002, 9.620096e+002
6.107000e+002, 9.645669e+002
6.110000e+002, 9.650193e+002
6.113000e+002, 9.661573e+002
6.116000e+002, 9.684744e+002
6.119000e+002, 9.690979e+002
6.122000e+002, 9.698813e+002
6.125000e+002, 9.714607e+002
6.128000e+002, 9.742800e+002
6.131000e+002, 9.768359e+002
6.134000e+002, 9.780800e+002
6.137000e+002, 9.807462e+002
6.140000e+002, 9.816744e+002
6.143000e+002, 9.838124e+002
6.146000e+002, 9.875627e+002
6.149000e+002, 9.878910e+002
6.152000e+002, 9.904938e+002
6.155000e+002, 9.931752e+002
6.158000e+002, 9.952249e+002
6.161000e+002, 9.971779e+002
6.164000e+002, 9.995917e+002
6.167000e+002, 1.001836e+003
6.170000e+002, 1.004865e+003
6.173000e+002, 1.009477e+003
6.176000e+002, 1.012367e+003
6.179000e+002, 1.015057e+003
6.182000e+002, 1.016583e+003
6.185000e+002, 1.019796e+003
6.188000e+002, 1.022312e+003
6.191000e+002, 1.023734e+003
6.194000e+002, 1.028160e+003
6.197000e+002, 1.032401e+003
6.200000e+002, 1.035098e+003
6.203000e+002, 1.039317e+003
6.206000e+002, 1.043040e+003
6.209000e+002, 1.046091e+003
6.212000e+002, 1.048429e+003
6.215000e+002, 1.051237e+003
6.218000e+002, 1.054183e+003
6.221000e+002, 1.058201e+003
6.224000e+002, 1.062286e+003
6.227000e+002, 1.066087e+003
6.230000e+002, 1.069342e+003
6.233000e+002, 1.071439e+003
6.236000e+002, 1.077119e+003
6.239000e+002, 1.081007e+003
6.242000e+002, 1.084382e+003
6.245000e+002, 1.088668e+003
6.248000e+002, 1.093461e+003
6.251000e+002, 1.096345e+003
6.254000e+002, 1.100283e+003
6.257000e+002, 1.104498e+003
6.260000e+002, 1.109101e+003
6.263000e+002, 1.112121e+003
6.266000e+002, 1.116297e+003
6.269000e+002, 1.121614e+003
6.272000e+002, 1.125274e+003
6.275000e+002, 1.129735e+003
6.278000e+002, 1.134688e+003
6.281000e+002, 1.137323e+003
6.284000e+002, 1.142492e+003
6.287000e+002, 1.148228e+003
6.290000e+002, 1.152251e+003
6.293000e+002, 1.158172e+003
6.296000e+002, 1.163983e+003
6.299000e+002, 1.169903e+003
6.302000e+002, 1.173952e+003
6.305000e+002, 1.178996e+003
6.308000e+002, 1.183777e+003
6.311000e+002, 1.188349e+003
6.314000e+002, 1.193345e+003
6.317000e+002, 1.198720e+003
6.320000e+002, 1.204302e+003
6.323000e+002, 1.210908e+003
6.326000e+002, 1.215868e+003
6.329000e+002, 1.220912e+003
6.332000e+002, 1.226268e+003
6.335000e+002, 1.229189e+003
6.338000e+002, 1.235875e+003
6.341000e+002, 1.240557e+003
6.344000e+002, 1.245706e+003
6.347000e+002, 1.249767e+003
6.350000e+002, 1.253586e+003
6.353000e+002, 1.257182e+003
6.356000e+002, 1.260206e+003
6.359000e+002, 1.263350e+003
6.362000e+002, 1.267003e+003
6.365000e+002, 1.271581e+003
6.368000e+002, 1.276448e+003
6.371000e+002, 1.279679e+003
6.374000e+002, 1.282806e+003
6.377000e+002, 1.285812e+003
6.380000e+002, 1.289818e+003
6.383000e+002, 1.295092e+003
6.386000e+002, 1.297753e+003
6.389000e+002, 1.302468e+003
6.392000e+002, 1.303524e+003
6.395000e+002, 1.307764e+003
6.398000e+002, 1.311677e+003
6.401000e+002, 1.314712e+003
6.404000e+002, 1.319268e+003
6.407000e+002, 1.322155e+003
6.410000e+002, 1.322783e+003
6.413000e+002, 1.325098e+003
6.416000e+002, 1.329938e+003
6.419000e+002, 1.332530e+003
6.422000e+002, 1.335905e+003
6.425000e+002, 1.337953e+003
6.428000e+002, 1.340688e+003
6.431000e+002, 1.342978e+003
6.434000e+002, 1.345741e+003
6.437000e+002, 1.349317e+003
6.440000e+002, 1.352440e+003
6.443000e+002, 1.354230e+003
6.446000e+002, 1.358299e+003
6.449000e+002, 1.361683e+003
6.452000e+002, 1.365201e+003
6.455000e+002, 1.366297e+003
6.458000e+002, 1.368183e+003
6.461000e+002, 1.371003e+003
6.464000e+002, 1.372512e+003
6.467000e+002, 1.374651e+003
6.470000e+002, 1.375790e+003
6.473000e+002, 1.379949e+003
6.476000e+002, 1.382084e+003
6.479000e+002, 1.385508e+003
6.482000e+002, 1.386309e+003
6.485000e+002, 1.390374e+003
6.488000e+002, 1.393339e+003
6.491000e+002, 1.393735e+003
6.494000e+002, 1.396724e+003
6.497000e+002, 1.398890e+003
6.500000e+002, 1.402753e+003
6.503000e+002, 1.403720e+003
6.506000e+002, 1.406408e+003
6.509000e+002, 1.409521e+003
6.512000e+002, 1.410946e+003
6.515000e+002, 1.413041e+003
6.518000e+002, 1.414982e+003
6.521000e+002, 1.415447e+003
6.524000e+002, 1.416535e+003
6.527000e+002, 1.419298e+003
6.530000e+002, 1.423763e+003
6.533000e+002, 1.424079e+003
6.536000e+002, 1.426146e+003
6.539000e+002, 1.427830e+003
6.542000e+002, 1.429979e+003
6.545000e+002, 1.431781e+003
6.548000e+002, 1.432909e+003
6.551000e+002, 1.434123e+003
6.554000e+002, 1.436445e+003
6.557000e+002, 1.436694e+003
6.560000e+002, 1.437029e+003
6.563000e+002, 1.437932e+003
6.566000e+002, 1.439913e+003
6.569000e+002, 1.441782e+003
6.572000e+002, 1.439748e+003
6.575000e+002, 1.440561e+003
6.578000e+002, 1.439981e+003
6.581000e+002, 1.440152e+003
6.584000e+002, 1.440901e+003
6.587000e+002, 1.439782e+003
6.590000e+002, 1.438068e+003
6.593000e+002, 1.437719e+003
6.596000e+002, 1.436648e+003
6.599000e+002, 1.438059e+003
6.602000e+002, 1.437793e+003
6.605000e+002, 1.436390e+003
6.608000e+002, 1.436738e+003
6.611000e+002, 1.437607e+003
6.614000e+002, 1.434931e+003
6.617000e+002, 1.431356e+003
6.620000e+002, 1.430545e+003
6.623000e+002, 1.427830e+003
6.626000e+002, 1.424731e+003
6.629000e+002, 1.423277e+003
6.632000e+002, 1.421003e+003
6.635000e+002, 1.419225e+003
6.638000e+002, 1.417935e+003
6.641000e+002, 1.416526e+003
6.644000e+002, 1.416618e+003
6.647000e+002, 1.414630e+003
6.650000e+002, 1.412469e+003
6.653000e+002, 1.409862e+003
6.656000e+002, 1.406764e+003
6.659000e+002, 1.405659e+003
6.662000e+002, 1.403250e+003
6.665000e+002, 1.402807e+003
6.668000e+002, 1.400749e+003
6.671000e+002, 1.399879e+003
6.674000e+002, 1.398961e+003
6.677000e+002, 1.397148e+003
6.680000e+002, 1.396189e+003
6.683000e+002, 1.396341e+003
6.686000e+002, 1.393141e+003
6.689000e+002, 1.392410e+003
6.692000e+002, 1.391852e+003
6.695000e+002, 1.391174e+003
6.698000e+002, 1.389382e+003
6.701000e+002, 1.388760e+003
6.704000e+002, 1.388041e+003
6.707000e+002, 1.387759e+003
6.710000e+002, 1.388218e+003
6.713000e+002, 1.388490e+003
6.716000e+002, 1.387833e+003
6.719000e+002, 1.385553e+003
6.722000e+002, 1.383876e+003
6.725000e+002, 1.382988e+003
6.728000e+002, 1.379822e+003
6.731000e+002, 1.377593e+003
6.734000e+002, 1.377059e+003
6.737000e+002, 1.376614e+003
6.740000e+002, 1.377130e+003
6.743000e+002, 1.374811e+003
6.746000e+002, 1.373076e+003
6.749000e+002, 1.371665e+003
6.752000e+002, 1.370517e+003
6.755000e+002, 1.368428e+003
6.758000e+002, 1.365997e+003
6.761000e+002, 1.362524e+003
6.764000e+002, 1.362212e+003
6.767000e+002, 1.357960e+003
6.770000e+002, 1.353526e+003
6.773000e+002, 1.351855e+003
6.776000e+002, 1.349345e+003
6.779000e+002, 1.349055e+003
6.782000e+002, 1.347367e+003
6.785000e+002, 1.345339e+003
6.788000e+002, 1.344568e+003
6.791000e+002, 1.342945e+003
6.794000e+002, 1.341680e+003
6.797000e+002, 1.339836e+003
6.800000e+002, 1.337668e+003
6.803000e+002, 1.336175e+003
6.806000e+002, 1.337105e+003
6.809000e+002, 1.336012e+003
6.812000e+002, 1.333233e+003
6.815000e+002, 1.331895e+003
6.818000e+002, 1.331421e+003
6.821000e+002, 1.329124e+003
6.824000e+002, 1.327439e+003
6.827000e+002, 1.324444e+003
6.830000e+002, 1.323277e+003
6.833000e+002, 1.321564e+003
6.836000e+002, 1.320292e+003
6.839000e+002, 1.319563e+003
6.842000e+002, 1.319214e+003
6.845000e+002, 1.321903e+003
6.848000e+002, 1.321916e+003
6.851000e+002, 1.316894e+003
6.854000e+002, 1.314563e+003
6.857000e+002, 1.311428e+003
6.860000e+002, 1.308684e+003
6.863000e+002, 1.303449e+003
6.866000e+002, 1.305823e+003
6.869000e+002, 1.298936e+003
6.872000e+002, 1.293040e+003
6.875000e+002, 1.287360e+003
#ENDOFDATA   : End Of Data and File